Data from oven-75C-5d_1e-4_Absorbance_08-44-49-666.txt Node
Date: Tue Aug 29 08:44:49 EDT 2023
User: UV-vis
Spectrometer: FLMS04918
Trigger mode: 0
Integration Time (sec): 1.000000E-1
Scans to average: 3
Electric dark correction enabled: true
Nonlinearity correction enabled: false
Boxcar width: 3
XAxis mode: Wavelengths
Number of Pixels in Spectrum: 2048
>>>>>Begin Spectral Data<<<<<
179.23	1.27963
179.611	1.2878
179.992	-0
180.373	2.37123
180.754	-0
181.134	-0
181.515	-0
181.896	-0
182.276	-0
182.657	-0.03094
183.038	-0.08341
183.418	0.01342
183.799	0.44559
184.179	0.26461
184.56	-0
184.94	-0
185.32	0.57702
185.701	0.0806
186.081	-0
186.461	0.91172
186.842	1.92664
187.222	1.94654
187.602	2.00964
187.982	2.0771
188.362	2.05364
188.742	2.09783
189.122	2.04728
189.502	2.04159
189.882	2.04154
190.262	2.0246
190.642	2.02619
191.022	2.07201
191.402	2.06449
191.781	2.09636
192.161	2.12879
192.541	2.14223
192.92	2.14492
193.3	2.14893
193.68	2.11572
194.059	2.10569
194.439	2.0866
194.818	2.04696
195.198	2.04414
195.577	2.06282
195.957	2.09898
196.336	2.0963
196.715	2.07884
197.094	2.08475
197.474	2.08435
197.853	2.0857
198.232	2.06069
198.611	2.00262
198.99	2.01364
199.369	2.00051
199.748	2.00796
200.127	2.02399
200.506	2.01901
200.885	2.03527
201.264	2.06337
201.643	2.06529
202.022	2.06983
202.401	2.06635
202.779	2.0534
203.158	2.04211
203.537	2.03916
203.915	2.00618
204.294	1.99139
204.673	2.00263
205.051	2.00363
205.43	2.03929
205.808	2.05319
206.187	2.05092
206.565	2.08583
206.943	2.10308
207.322	2.14598
207.7	2.1679
208.078	2.12558
208.456	2.13593
208.835	2.14559
209.213	2.13115
209.591	2.11973
209.969	2.06671
210.347	2.03974
210.725	2.07401
211.103	2.05947
211.481	2.05719
211.859	2.04996
212.237	2.05328
212.614	2.0581
212.992	2.07172
213.37	2.06487
213.748	2.05345
214.125	2.02413
214.503	2.02858
214.881	2.00916
215.258	2.01499
215.636	2.01959
216.013	2.02164
216.391	2.04778
216.768	2.07948
217.145	2.08971
217.523	2.12604
217.9	2.13308
218.277	2.11662
218.655	2.11635
219.032	2.1229
219.409	2.12775
219.786	2.11936
220.163	2.08973
220.54	2.11265
220.917	2.11273
221.294	2.11432
221.671	2.07563
222.048	2.05966
222.425	2.09972
222.802	2.09551
223.179	2.10328
223.556	2.13804
223.932	2.12282
224.309	2.15025
224.686	2.17941
225.062	2.15193
225.439	2.17046
225.815	2.13876
226.192	2.11934
226.568	2.15564
226.945	2.17196
227.321	2.14292
227.698	2.13714
228.074	2.15586
228.45	2.18009
228.827	2.159
229.203	2.10823
229.579	2.07745
229.955	2.09345
230.331	2.10483
230.707	2.08098
231.083	2.07544
231.46	2.09046
231.835	2.11756
232.211	2.15037
232.587	2.16318
232.963	2.14966
233.339	2.16187
233.715	2.18658
234.091	2.17152
234.466	2.15979
234.842	2.15955
235.218	2.13697
235.593	2.13015
235.969	2.09319
236.344	2.07836
236.72	2.07095
237.095	2.08772
237.471	2.09423
237.846	2.11923
238.222	2.10061
238.597	2.14068
238.972	2.12214
239.348	2.14287
239.723	2.13056
240.098	2.1023
240.473	2.07892
240.848	2.09017
241.223	2.09928
241.598	2.10738
241.973	2.12397
242.348	2.09144
242.723	2.11161
243.098	2.14193
243.473	2.16227
243.848	2.15664
244.223	2.16128
244.597	2.14805
244.972	2.17762
245.347	2.14493
245.721	2.1441
246.096	2.12856
246.47	2.13497
246.845	2.13172
247.219	2.12498
247.594	2.14451
247.968	2.14265
248.343	2.10911
248.717	2.12305
249.091	2.11264
249.466	2.10939
249.84	2.12539
250.214	2.09951
250.588	2.13469
250.962	2.13395
251.336	2.14762
251.71	2.13098
252.084	2.14531
252.458	2.1479
252.832	2.17438
253.206	2.20608
253.58	2.24312
253.954	2.21611
254.328	2.24836
254.702	2.23976
255.075	2.23455
255.449	2.22886
255.823	2.18632
256.196	2.17578
256.57	2.16728
256.943	2.15267
257.317	2.1523
257.69	2.16522
258.064	2.17843
258.437	2.17745
258.81	2.19372
259.184	2.24519
259.557	2.27895
259.93	2.2976
260.303	2.32029
260.677	2.33907
261.05	2.33822
261.423	2.34059
261.796	2.30298
262.169	2.28641
262.542	2.27545
262.915	2.21753
263.288	2.22031
263.661	2.22802
264.033	2.21062
264.406	2.20428
264.779	2.23543
265.152	2.25036
265.524	2.25063
265.897	2.22775
266.27	2.24624
266.642	2.27042
267.015	2.28267
267.387	2.26661
267.76	2.26708
268.132	2.27545
268.504	2.26754
268.877	2.24061
269.249	2.22864
269.621	2.21965
269.994	2.20832
270.366	2.20277
270.738	2.22922
271.11	2.23972
271.482	2.25181
271.854	2.26003
272.226	2.25591
272.598	2.26269
272.97	2.26459
273.342	2.26016
273.714	2.26555
274.086	2.2955
274.458	2.30562
274.829	2.30321
275.201	2.29982
275.573	2.32532
275.944	2.34669
276.316	2.33949
276.688	2.33396
277.059	2.33425
277.431	2.33244
277.802	2.36942
278.173	2.38959
278.545	2.37579
278.916	2.36546
279.287	2.34157
279.659	2.3369
280.03	2.3603
280.401	2.34163
280.772	2.33723
281.143	2.35156
281.515	2.38545
281.886	2.42099
282.257	2.47834
282.628	2.51891
282.998	2.55985
283.369	2.58232
283.74	2.58943
284.111	2.56861
284.482	2.53013
284.853	2.49326
285.223	2.44534
285.594	2.38536
285.965	2.32137
286.335	2.26851
286.706	2.2269
287.076	2.18402
287.447	2.13334
287.817	2.102
288.188	2.07828
288.558	2.05371
288.928	2.03175
289.299	2.01183
289.669	2.0062
290.039	1.99657
290.409	1.99579
290.779	1.9857
291.149	1.98467
291.52	1.97569
291.89	1.96083
292.26	1.94359
292.629	1.91987
292.999	1.87967
293.369	1.84558
293.739	1.79931
294.109	1.75933
294.479	1.7206
294.848	1.67957
295.218	1.64214
295.588	1.60657
295.957	1.5744
296.327	1.54951
296.696	1.51976
297.066	1.49448
297.435	1.47147
297.805	1.45189
298.174	1.43532
298.544	1.41654
298.913	1.39985
299.282	1.3855
299.651	1.3722
300.021	1.35971
300.39	1.34538
300.759	1.33151
301.128	1.32015
301.497	1.30539
301.866	1.29487
302.235	1.28379
302.604	1.27325
302.973	1.26477
303.342	1.25887
303.71	1.25425
304.079	1.25309
304.448	1.25349
304.817	1.25343
305.185	1.25505
305.554	1.25696
305.923	1.25817
306.291	1.25976
306.66	1.25725
307.028	1.25363
307.397	1.24817
307.765	1.23897
308.133	1.22869
308.502	1.21725
308.87	1.20269
309.238	1.1916
309.606	1.18096
309.975	1.17063
310.343	1.16352
310.711	1.15587
311.079	1.15092
311.447	1.14643
311.815	1.14316
312.183	1.14011
312.551	1.13886
312.919	1.13748
313.286	1.13804
313.654	1.13815
314.022	1.1382
314.39	1.13766
314.757	1.13774
315.125	1.13888
315.492	1.13964
315.86	1.1415
316.228	1.14384
316.595	1.14939
316.962	1.15354
317.33	1.1565
317.697	1.15811
318.065	1.15859
318.432	1.15605
318.799	1.15133
319.166	1.14315
319.534	1.13515
319.901	1.1289
320.268	1.12154
320.635	1.11546
321.002	1.10905
321.369	1.10341
321.736	1.09706
322.103	1.09115
322.47	1.08389
322.836	1.08191
323.203	1.0785
323.57	1.07973
323.937	1.08027
324.303	1.08112
324.67	1.08388
325.037	1.08633
325.403	1.08399
325.77	1.08199
326.136	1.07816
326.503	1.07447
326.869	1.07042
327.235	1.06508
327.602	1.05812
327.968	1.0535
328.334	1.04821
328.7	1.04238
329.067	1.03726
329.433	1.03329
329.799	1.02907
330.165	1.02758
330.531	1.02668
330.897	1.02615
331.263	1.02618
331.629	1.02591
331.995	1.02602
332.36	1.02793
332.726	1.02811
333.092	1.02786
333.458	1.02796
333.823	1.02648
334.189	1.02569
334.554	1.02595
334.92	1.02666
335.286	1.02563
335.651	1.02517
336.016	1.025
336.382	1.02525
336.747	1.02634
337.113	1.02551
337.478	1.02326
337.843	1.02292
338.208	1.02306
338.573	1.02235
338.939	1.02265
339.304	1.01935
339.669	1.01898
340.034	1.01732
340.399	1.01736
340.764	1.01514
341.129	1.01432
341.493	1.01354
341.858	1.01498
342.223	1.01718
342.588	1.01909
342.952	1.02075
343.317	1.02217
343.682	1.02449
344.046	1.02575
344.411	1.0272
344.775	1.02949
345.14	1.03133
345.504	1.03296
345.869	1.03443
346.233	1.03454
346.597	1.03555
346.962	1.03706
347.326	1.03561
347.69	1.03476
348.054	1.03394
348.418	1.03389
348.782	1.03314
349.146	1.03244
349.51	1.0306
349.874	1.02907
350.238	1.02756
350.602	1.02473
350.966	1.02084
351.33	1.0184
351.693	1.01496
352.057	1.01091
352.421	1.00845
352.784	1.00649
353.148	1.0044
353.512	1.00444
353.875	1.00375
354.239	1.0037
354.602	1.00441
354.966	1.00352
355.329	1.00516
355.692	1.00688
356.056	1.00718
356.419	1.00735
356.782	1.00982
357.145	1.01147
357.508	1.01305
357.871	1.01408
358.234	1.01517
358.597	1.01783
358.96	1.02013
359.323	1.02071
359.686	1.02316
360.049	1.02479
360.412	1.02609
360.775	1.02863
361.137	1.03004
361.5	1.0301
361.863	1.03198
362.225	1.0326
362.588	1.03369
362.951	1.0326
363.313	1.03162
363.675	1.03004
364.038	1.02962
364.4	1.02692
364.763	1.0236
365.125	1.01954
365.487	1.01554
365.849	1.01244
366.212	1.0093
366.574	1.00644
366.936	1.00353
367.298	1.00216
367.66	1.00197
368.022	1.00404
368.384	1.00541
368.746	1.00751
369.108	1.01077
369.469	1.01455
369.831	1.01717
370.193	1.01875
370.555	1.02117
370.916	1.02133
371.278	1.02084
371.64	1.01869
372.001	1.01616
372.363	1.0132
372.724	1.01138
373.086	1.00795
373.447	1.00448
373.808	1.0012
374.17	0.99908
374.531	0.99632
374.892	0.99553
375.253	0.99365
375.615	0.99159
375.976	0.99029
376.337	0.9887
376.698	0.98678
377.059	0.98505
377.42	0.98238
377.781	0.98094
378.141	0.97899
378.502	0.97865
378.863	0.97814
379.224	0.97888
379.585	0.9798
379.945	0.98151
380.306	0.98435
380.666	0.98855
381.027	0.98964
381.388	0.99222
381.748	0.99461
382.108	0.99671
382.469	0.99846
382.829	0.99889
383.19	0.99692
383.55	0.99857
383.91	0.99898
384.27	0.99891
384.63	0.99721
384.991	0.99518
385.351	0.99347
385.711	0.99159
386.071	0.98718
386.431	0.98299
386.791	0.97781
387.15	0.97455
387.51	0.96924
387.87	0.96516
388.23	0.96227
388.589	0.96074
388.949	0.95934
389.309	0.95933
389.668	0.95868
390.028	0.95976
390.387	0.95771
390.747	0.9563
391.106	0.95132
391.466	0.94548
391.825	0.9388
392.184	0.93472
392.544	0.93214
392.903	0.93142
393.262	0.93178
393.621	0.93657
393.98	0.94377
394.339	0.95287
394.698	0.96116
395.057	0.96733
395.416	0.97443
395.775	0.97852
396.134	0.98008
396.493	0.98021
396.852	0.97846
397.211	0.97487
397.569	0.97237
397.928	0.97083
398.287	0.97209
398.645	0.97525
399.004	0.97916
399.362	0.98507
399.721	0.99261
400.079	1.00227
400.438	1.01084
400.796	1.01734
401.154	1.02354
401.512	1.02929
401.871	1.03295
402.229	1.03682
402.587	1.03774
402.945	1.03593
403.303	1.03287
403.661	1.02669
404.019	1.02034
404.377	1.01386
404.735	1.00648
405.093	0.99888
405.451	0.99557
405.808	0.99486
406.166	0.99746
406.524	0.99831
406.882	0.99935
407.239	0.99786
407.597	0.99665
407.954	0.99384
408.312	0.98899
408.669	0.98361
409.027	0.9805
409.384	0.97847
409.741	0.97844
410.099	0.97975
410.456	0.97766
410.813	0.9766
411.17	0.97418
411.527	0.97087
411.884	0.96726
412.242	0.96475
412.599	0.96109
412.956	0.96033
413.312	0.96187
413.669	0.96506
414.026	0.96887
414.383	0.972
414.74	0.97748
415.096	0.98368
415.453	0.98869
415.81	0.99281
416.166	0.99847
416.523	1.00334
416.879	1.00991
417.236	1.01377
417.592	1.01805
417.949	1.02215
418.305	1.02628
418.661	1.02971
419.018	1.03453
419.374	1.03678
419.73	1.03807
420.086	1.03699
420.442	1.03743
420.798	1.03934
421.154	1.04119
421.51	1.04469
421.866	1.05171
422.222	1.06227
422.578	1.07781
422.934	1.0958
423.29	1.11473
423.646	1.13514
424.001	1.15751
424.357	1.18102
424.713	1.20416
425.068	1.22929
425.424	1.25433
425.779	1.27782
426.135	1.30188
426.49	1.32157
426.845	1.34046
427.201	1.36034
427.556	1.37537
427.911	1.38831
428.266	1.3991
428.622	1.40415
428.977	1.40898
429.332	1.41257
429.687	1.41151
430.042	1.41302
430.397	1.415
430.752	1.41717
431.107	1.42141
431.461	1.42632
431.816	1.42589
432.171	1.42515
432.526	1.42011
432.88	1.41253
433.235	1.40587
433.59	1.4024
433.944	1.39672
434.299	1.39461
434.653	1.39324
435.008	1.39065
435.362	1.3903
435.716	1.39212
436.071	1.38652
436.425	1.38642
436.779	1.38548
437.133	1.3874
437.487	1.39321
437.841	1.39876
438.195	1.40088
438.549	1.41058
438.903	1.42057
439.257	1.43008
439.611	1.43732
439.965	1.44239
440.319	1.44842
440.673	1.45495
441.026	1.4592
441.38	1.46102
441.734	1.46481
442.087	1.46644
442.441	1.46913
442.794	1.47153
443.148	1.47536
443.501	1.47608
443.855	1.47468
444.208	1.47062
444.561	1.46948
444.915	1.47054
445.268	1.46484
445.621	1.45799
445.974	1.45361
446.327	1.4491
446.68	1.44543
447.033	1.43983
447.386	1.42852
447.739	1.42453
448.092	1.42089
448.445	1.41445
448.798	1.40864
449.15	1.40369
449.503	1.3969
449.856	1.39408
450.209	1.38937
450.561	1.38285
450.914	1.37812
451.266	1.37364
451.619	1.36845
451.971	1.36922
452.323	1.3671
452.676	1.36642
453.028	1.36735
453.38	1.3677
453.733	1.36848
454.085	1.37072
454.437	1.36966
454.789	1.37057
455.141	1.37248
455.493	1.37311
455.845	1.37254
456.197	1.37247
456.549	1.37238
456.901	1.37245
457.253	1.37428
457.604	1.37327
457.956	1.37204
458.308	1.37245
458.659	1.37198
459.011	1.37238
459.362	1.37209
459.714	1.36967
460.065	1.36968
460.417	1.37103
460.768	1.3731
461.12	1.37337
461.471	1.37088
461.822	1.37267
462.173	1.37264
462.525	1.37241
462.876	1.37119
463.227	1.37029
463.578	1.3684
463.929	1.37005
464.28	1.36757
464.631	1.36719
464.982	1.36482
465.332	1.36376
465.683	1.36351
466.034	1.36416
466.385	1.36324
466.735	1.36271
467.086	1.36105
467.437	1.3619
467.787	1.36047
468.138	1.35889
468.488	1.35655
468.839	1.35337
469.189	1.35252
469.539	1.35207
469.89	1.34837
470.24	1.34596
470.59	1.34542
470.94	1.34706
471.29	1.34966
471.64	1.34736
471.99	1.3457
472.34	1.34476
472.69	1.34319
473.04	1.34084
473.39	1.33553
473.74	1.3306
474.09	1.32844
474.439	1.32496
474.789	1.32184
475.139	1.31946
475.488	1.31529
475.838	1.3137
476.188	1.31016
476.537	1.30487
476.886	1.30151
477.236	1.29764
477.585	1.29371
477.935	1.28751
478.284	1.28282
478.633	1.278
478.982	1.27514
479.331	1.27095
479.68	1.2666
480.03	1.26363
480.379	1.2617
480.728	1.256
481.076	1.25229
481.425	1.24641
481.774	1.24167
482.123	1.23785
482.472	1.23257
482.821	1.22668
483.169	1.2237
483.518	1.21988
483.866	1.21464
484.215	1.21031
484.563	1.20462
484.912	1.19966
485.26	1.19656
485.609	1.19235
485.957	1.18771
486.305	1.18443
486.654	1.1816
487.002	1.17981
487.35	1.17852
487.698	1.17517
488.046	1.17385
488.394	1.1724
488.742	1.17349
489.09	1.17037
489.438	1.16969
489.786	1.16701
490.134	1.16765
490.482	1.16597
490.829	1.16672
491.177	1.16459
491.525	1.16622
491.872	1.16565
492.22	1.16487
492.567	1.1641
492.915	1.16419
493.262	1.16443
493.61	1.1652
493.957	1.16664
494.304	1.16625
494.652	1.16751
494.999	1.169
495.346	1.1691
495.693	1.16674
496.04	1.16629
496.387	1.16529
496.734	1.16483
497.081	1.16373
497.428	1.16197
497.775	1.16275
498.122	1.16271
498.469	1.16244
498.816	1.1613
499.162	1.15973
499.509	1.15836
499.856	1.1569
500.202	1.15293
500.549	1.15196
500.895	1.15087
501.242	1.14796
501.588	1.1462
501.935	1.14626
502.281	1.14363
502.627	1.14293
502.973	1.14031
503.32	1.13732
503.666	1.13588
504.012	1.13334
504.358	1.13059
504.704	1.12894
505.05	1.12627
505.396	1.12444
505.742	1.11993
506.088	1.11823
506.433	1.11673
506.779	1.11513
507.125	1.11089
507.471	1.10725
507.816	1.10324
508.162	1.10096
508.507	1.09688
508.853	1.09448
509.198	1.08856
509.544	1.08639
509.889	1.08385
510.234	1.08079
510.58	1.07632
510.925	1.07361
511.27	1.06999
511.615	1.06787
511.96	1.06555
512.306	1.06281
512.651	1.05943
512.996	1.05742
513.341	1.05488
513.685	1.0514
514.03	1.04787
514.375	1.0445
514.72	1.04017
515.065	1.03722
515.409	1.03494
515.754	1.03029
516.099	1.02597
516.443	1.02223
516.788	1.01762
517.132	1.01544
517.476	1.01151
517.821	1.00764
518.165	1.00326
518.51	0.99973
518.854	0.9962
519.198	0.99327
519.542	0.98808
519.886	0.98534
520.23	0.98192
520.574	0.97993
520.918	0.97709
521.262	0.97405
521.606	0.97041
521.95	0.96903
522.294	0.96672
522.638	0.96451
522.981	0.96155
523.325	0.95918
523.669	0.9574
524.012	0.95597
524.356	0.95309
524.699	0.94983
525.043	0.94675
525.386	0.94424
525.73	0.94211
526.073	0.94072
526.416	0.93879
526.76	0.93749
527.103	0.9362
527.446	0.93473
527.789	0.93348
528.132	0.93243
528.475	0.93103
528.818	0.93006
529.161	0.92881
529.504	0.92795
529.847	0.92858
530.19	0.92769
530.532	0.92708
530.875	0.92695
531.218	0.92597
531.56	0.92542
531.903	0.92508
532.246	0.9243
532.588	0.92409
532.93	0.92466
533.273	0.92312
533.615	0.92358
533.958	0.92486
534.3	0.92481
534.642	0.92527
534.984	0.92554
535.326	0.9249
535.669	0.92599
536.011	0.92584
536.353	0.92429
536.695	0.92453
537.037	0.92426
537.378	0.92432
537.72	0.92501
538.062	0.92548
538.404	0.92645
538.746	0.92776
539.087	0.9286
539.429	0.92934
539.77	0.93135
540.112	0.9316
540.454	0.93145
540.795	0.93001
541.136	0.92987
541.478	0.92994
541.819	0.93054
542.16	0.92937
542.502	0.93081
542.843	0.93175
543.184	0.93268
543.525	0.93276
543.866	0.93376
544.207	0.9346
544.548	0.93463
544.889	0.93379
545.23	0.93309
545.571	0.93421
545.911	0.93489
546.252	0.93284
546.593	0.93188
546.934	0.93204
547.274	0.93141
547.615	0.92974
547.955	0.92891
548.296	0.92735
548.636	0.92644
548.977	0.92504
549.317	0.92488
549.657	0.92364
549.997	0.92309
550.338	0.9214
550.678	0.92019
551.018	0.91938
551.358	0.91729
551.698	0.91574
552.038	0.91405
552.378	0.91302
552.718	0.91066
553.058	0.90847
553.398	0.90695
553.737	0.90587
554.077	0.90276
554.417	0.89997
554.756	0.89788
555.096	0.89629
555.435	0.89462
555.775	0.89301
556.114	0.89087
556.454	0.88913
556.793	0.8873
557.133	0.88407
557.472	0.88072
557.811	0.87826
558.15	0.87447
558.489	0.87119
558.829	0.8682
559.168	0.86648
559.507	0.86379
559.846	0.8617
560.184	0.85927
560.523	0.85748
560.862	0.85405
561.201	0.85139
561.54	0.84709
561.878	0.8455
562.217	0.84405
562.556	0.84164
562.894	0.83968
563.233	0.83737
563.571	0.83388
563.91	0.83166
564.248	0.82909
564.586	0.82527
564.925	0.82265
565.263	0.81868
565.601	0.81624
565.939	0.81302
566.277	0.81153
566.616	0.80834
566.954	0.80605
567.292	0.80387
567.63	0.80194
567.967	0.80007
568.305	0.79919
568.643	0.7965
568.981	0.79425
569.319	0.79176
569.656	0.78963
569.994	0.78748
570.331	0.78625
570.669	0.7838
571.006	0.7824
571.344	0.78134
571.681	0.7792
572.019	0.77661
572.356	0.77477
572.693	0.77139
573.03	0.77076
573.368	0.76788
573.705	0.76617
574.042	0.76532
574.379	0.76426
574.716	0.76393
575.053	0.76363
575.39	0.76217
575.727	0.76147
576.063	0.75982
576.4	0.75899
576.737	0.75733
577.074	0.75636
577.41	0.75517
577.747	0.75484
578.083	0.75377
578.42	0.75188
578.756	0.75105
579.093	0.75084
579.429	0.74876
579.766	0.74784
580.102	0.74579
580.438	0.74575
580.774	0.74554
581.11	0.74538
581.446	0.74411
581.782	0.74417
582.119	0.74381
582.454	0.74339
582.79	0.74238
583.126	0.74237
583.462	0.74077
583.798	0.7408
584.134	0.74008
584.469	0.73945
584.805	0.73965
585.141	0.73938
585.476	0.73899
585.812	0.73932
586.147	0.73918
586.482	0.73919
586.818	0.73861
587.153	0.73804
587.488	0.73762
587.824	0.73783
588.159	0.73845
588.494	0.73766
588.829	0.73763
589.164	0.73715
589.499	0.73761
589.834	0.73809
590.169	0.73864
590.504	0.73775
590.839	0.73828
591.174	0.73765
591.508	0.73845
591.843	0.73797
592.178	0.73781
592.512	0.73681
592.847	0.73724
593.181	0.73737
593.516	0.7381
593.85	0.73802
594.185	0.73746
594.519	0.73671
594.853	0.73661
595.187	0.73604
595.522	0.73563
595.856	0.73539
596.19	0.736
596.524	0.73688
596.858	0.73686
597.192	0.73725
597.526	0.73709
597.86	0.73699
598.194	0.73617
598.527	0.73557
598.861	0.73532
599.195	0.73628
599.528	0.7359
599.862	0.73629
600.196	0.73628
600.529	0.73658
600.863	0.73673
601.196	0.73601
601.529	0.73558
601.863	0.7357
602.196	0.73551
602.529	0.7354
602.862	0.73537
603.196	0.73448
603.529	0.73505
603.862	0.73429
604.195	0.73392
604.528	0.73256
604.861	0.73202
605.193	0.7307
605.526	0.7309
605.859	0.72944
606.192	0.72877
606.524	0.72823
606.857	0.72951
607.19	0.72961
607.522	0.73015
607.855	0.72899
608.187	0.72896
608.52	0.72884
608.852	0.72888
609.184	0.72768
609.517	0.72628
609.849	0.72516
610.181	0.72558
610.513	0.72455
610.845	0.72413
611.177	0.72317
611.509	0.72284
611.841	0.72242
612.173	0.72266
612.505	0.72184
612.837	0.7227
613.169	0.72203
613.5	0.72197
613.832	0.72048
614.164	0.71988
614.495	0.71888
614.827	0.7182
615.158	0.71715
615.49	0.71692
615.821	0.71603
616.152	0.71553
616.484	0.71544
616.815	0.71477
617.146	0.71348
617.477	0.71173
617.808	0.71031
618.14	0.70897
618.471	0.70788
618.802	0.7067
619.133	0.70569
619.463	0.70454
619.794	0.70395
620.125	0.70302
620.456	0.7022
620.787	0.7016
621.117	0.70048
621.448	0.70035
621.778	0.70043
622.109	0.70067
622.439	0.69994
622.77	0.69822
623.1	0.69753
623.43	0.69675
623.761	0.69643
624.091	0.69545
624.421	0.69388
624.751	0.69341
625.081	0.69316
625.412	0.69151
625.742	0.6908
626.072	0.68839
626.401	0.68712
626.731	0.68595
627.061	0.68381
627.391	0.68228
627.721	0.68099
628.05	0.67943
628.38	0.67843
628.71	0.67673
629.039	0.67476
629.369	0.67409
629.698	0.67252
630.028	0.67166
630.357	0.67044
630.686	0.66846
631.015	0.6665
631.345	0.66534
631.674	0.66412
632.003	0.66299
632.332	0.66152
632.661	0.66025
632.99	0.65952
633.319	0.65918
633.648	0.65809
633.977	0.65641
634.306	0.65532
634.634	0.65431
634.963	0.6527
635.292	0.65116
635.62	0.65015
635.949	0.64901
636.277	0.64845
636.606	0.64838
636.934	0.6472
637.263	0.6467
637.591	0.64663
637.919	0.64604
638.248	0.64577
638.576	0.64542
638.904	0.6445
639.232	0.64437
639.56	0.64475
639.888	0.64487
640.216	0.64543
640.544	0.64595
640.872	0.64722
641.2	0.64729
641.528	0.64847
641.855	0.64925
642.183	0.6493
642.511	0.64912
642.838	0.64883
643.166	0.6486
643.493	0.64972
643.821	0.64984
644.148	0.64888
644.475	0.64888
644.803	0.64872
645.13	0.65003
645.457	0.65003
645.784	0.65079
646.112	0.65157
646.439	0.65247
646.766	0.6535
647.093	0.65541
647.42	0.65447
647.746	0.65602
648.073	0.65563
648.4	0.65631
648.727	0.65743
649.053	0.6581
649.38	0.65888
649.707	0.66071
650.033	0.66034
650.36	0.66145
650.686	0.66137
651.013	0.66211
651.339	0.66256
651.665	0.66211
651.992	0.66222
652.318	0.66311
652.644	0.66412
652.97	0.66462
653.296	0.6645
653.622	0.66531
653.948	0.66669
654.274	0.66631
654.6	0.66482
654.926	0.66237
655.252	0.66094
655.578	0.65956
655.903	0.65852
656.229	0.65794
656.555	0.65929
656.88	0.66073
657.206	0.66336
657.531	0.66637
657.857	0.66999
658.182	0.67193
658.507	0.67384
658.833	0.67473
659.158	0.67582
659.483	0.67704
659.808	0.67785
660.133	0.67735
660.458	0.67745
660.783	0.67769
661.108	0.67824
661.433	0.67814
661.758	0.67762
662.083	0.67783
662.408	0.67841
662.732	0.67928
663.057	0.6793
663.382	0.67959
663.706	0.68112
664.031	0.68197
664.355	0.68171
664.68	0.68206
665.004	0.6829
665.328	0.68326
665.653	0.68384
665.977	0.68402
666.301	0.68491
666.625	0.68621
666.949	0.68691
667.273	0.68737
667.597	0.68755
667.921	0.68853
668.245	0.68848
668.569	0.68815
668.893	0.68781
669.217	0.68726
669.54	0.68663
669.864	0.6869
670.188	0.686
670.511	0.68695
670.835	0.68779
671.158	0.68737
671.482	0.68862
671.805	0.68819
672.128	0.68717
672.452	0.68835
672.775	0.68824
673.098	0.6883
673.421	0.68883
673.744	0.68749
674.068	0.68852
674.391	0.68942
674.714	0.68841
675.036	0.68769
675.359	0.68732
675.682	0.68687
676.005	0.68896
676.328	0.68875
676.65	0.68839
676.973	0.68852
677.295	0.68888
677.618	0.68957
677.94	0.68951
678.263	0.68866
678.585	0.68904
678.908	0.69001
679.23	0.69078
679.552	0.69119
679.874	0.69123
680.196	0.69134
680.519	0.69136
680.841	0.69098
681.163	0.69144
681.485	0.69117
681.807	0.69165
682.128	0.69194
682.45	0.69275
682.772	0.69309
683.094	0.69365
683.415	0.69281
683.737	0.69273
684.059	0.69251
684.38	0.69186
684.702	0.69123
685.023	0.6913
685.344	0.6907
685.666	0.69079
685.987	0.68983
686.308	0.68953
686.629	0.68951
686.95	0.68981
687.272	0.68997
687.593	0.69048
687.914	0.69083
688.235	0.69245
688.555	0.69303
688.876	0.6942
689.197	0.69451
689.518	0.6949
689.839	0.69474
690.159	0.69446
690.48	0.69434
690.8	0.69448
691.121	0.69349
691.441	0.69419
691.762	0.69424
692.082	0.69521
692.402	0.69581
692.723	0.69591
693.043	0.6958
693.363	0.69607
693.683	0.69543
694.003	0.69511
694.323	0.69529
694.643	0.69497
694.963	0.69513
695.283	0.69509
695.603	0.69573
695.923	0.69611
696.243	0.69709
696.562	0.69718
696.882	0.69837
697.202	0.69887
697.521	0.7001
697.841	0.70042
698.16	0.70221
698.479	0.70165
698.799	0.70171
699.118	0.70175
699.437	0.70281
699.757	0.70279
700.076	0.70327
700.395	0.7031
700.714	0.70477
701.033	0.7062
701.352	0.70704
701.671	0.70685
701.99	0.70709
702.308	0.70856
702.627	0.70937
702.946	0.70874
703.265	0.70851
703.583	0.70895
703.902	0.71092
704.22	0.71175
704.539	0.71071
704.857	0.71031
705.176	0.71106
705.494	0.71231
705.812	0.71326
706.131	0.71225
706.449	0.71375
706.767	0.71533
707.085	0.71671
707.403	0.71727
707.721	0.71774
708.039	0.71864
708.357	0.72044
708.675	0.72081
708.993	0.7216
709.31	0.72309
709.628	0.72498
709.946	0.72594
710.263	0.72643
710.581	0.72654
710.898	0.7274
711.216	0.72879
711.533	0.72901
711.851	0.72975
712.168	0.73108
712.485	0.73243
712.802	0.7341
713.12	0.73464
713.437	0.73536
713.754	0.73759
714.071	0.73938
714.388	0.7412
714.705	0.74194
715.022	0.74309
715.338	0.74546
715.655	0.74751
715.972	0.74873
716.289	0.75042
716.605	0.75095
716.922	0.75306
717.238	0.75494
717.555	0.75657
717.871	0.75813
718.188	0.75845
718.504	0.75911
718.82	0.76091
719.136	0.76265
719.453	0.76454
719.769	0.76608
720.085	0.76733
720.401	0.76977
720.717	0.77119
721.033	0.77341
721.349	0.77607
721.665	0.77811
721.98	0.78011
722.296	0.78308
722.612	0.78586
722.927	0.78838
723.243	0.79044
723.559	0.79184
723.874	0.79381
724.19	0.79534
724.505	0.79593
724.82	0.79815
725.136	0.80032
725.451	0.80115
725.766	0.80383
726.081	0.80553
726.396	0.80787
726.711	0.81021
727.026	0.81113
727.341	0.81353
727.656	0.81779
727.971	0.81976
728.286	0.82334
728.601	0.82599
728.916	0.82887
729.23	0.83162
729.545	0.83449
729.859	0.83558
730.174	0.83673
730.488	0.83651
730.803	0.8389
731.117	0.8419
731.431	0.8433
731.746	0.84387
732.06	0.84442
732.374	0.84584
732.688	0.84795
733.002	0.84842
733.316	0.84831
733.63	0.84988
733.944	0.85084
734.258	0.8531
734.572	0.8546
734.886	0.8563
735.199	0.85678
735.513	0.85701
735.827	0.85703
736.14	0.85714
736.454	0.85798
736.767	0.85749
737.081	0.85711
737.394	0.85843
737.708	0.8604
738.021	0.86184
738.334	0.86288
738.647	0.86261
738.96	0.86452
739.273	0.86645
739.587	0.86665
739.9	0.86724
740.212	0.86818
740.525	0.87024
740.838	0.87228
741.151	0.87313
741.464	0.87397
741.776	0.87603
742.089	0.87715
742.402	0.87858
742.714	0.87865
743.027	0.87862
743.339	0.88002
743.651	0.88029
743.964	0.88065
744.276	0.88132
744.588	0.88204
744.901	0.88424
745.213	0.88609
745.525	0.88703
745.837	0.88834
746.149	0.88949
746.461	0.89149
746.773	0.8929
747.085	0.89382
747.396	0.89622
747.708	0.89738
748.02	0.89912
748.331	0.90149
748.643	0.90233
748.955	0.90366
749.266	0.90545
749.577	0.90547
749.889	0.90773
750.2	0.91007
750.512	0.91174
750.823	0.91362
751.134	0.91626
751.445	0.91849
751.756	0.92113
752.067	0.92282
752.378	0.92477
752.689	0.92714
753	0.92845
753.311	0.93087
753.622	0.933
753.932	0.93464
754.243	0.93755
754.554	0.93963
754.864	0.9409
755.175	0.94528
755.485	0.94698
755.796	0.94884
756.106	0.95188
756.417	0.95402
756.727	0.95528
757.037	0.95825
757.347	0.95898
757.658	0.96227
757.968	0.96478
758.278	0.9669
758.588	0.96968
758.898	0.97216
759.208	0.97419
759.517	0.97575
759.827	0.97597
760.137	0.97759
760.447	0.97928
760.756	0.98006
761.066	0.98218
761.375	0.98315
761.685	0.98613
761.994	0.98821
762.304	0.99032
762.613	0.99293
762.922	0.99526
763.232	0.99769
763.541	1.00032
763.85	1.00276
764.159	1.00599
764.468	1.0081
764.777	1.01005
765.086	1.01152
765.395	1.01355
765.704	1.01559
766.013	1.01597
766.321	1.01832
766.63	1.01983
766.939	1.0216
767.247	1.02332
767.556	1.02556
767.864	1.02693
768.173	1.02874
768.481	1.03037
768.789	1.0331
769.098	1.03515
769.406	1.03723
769.714	1.03831
770.022	1.03998
770.33	1.04298
770.638	1.04353
770.946	1.04425
771.254	1.04539
771.562	1.04716
771.87	1.04829
772.178	1.05124
772.486	1.05395
772.793	1.05647
773.101	1.05985
773.408	1.06214
773.716	1.06463
774.023	1.06766
774.331	1.06839
774.638	1.06881
774.946	1.07093
775.253	1.07265
775.56	1.07495
775.867	1.0776
776.174	1.07913
776.481	1.08203
776.788	1.08436
777.095	1.08594
777.402	1.08796
777.709	1.09036
778.016	1.09075
778.323	1.09201
778.63	1.09317
778.936	1.09513
779.243	1.0971
779.549	1.09814
779.856	1.10071
780.162	1.10319
780.469	1.10597
780.775	1.10954
781.082	1.1114
781.388	1.11404
781.694	1.11539
782	1.11564
782.306	1.11837
782.612	1.12042
782.918	1.12119
783.224	1.12443
783.53	1.12472
783.836	1.12766
784.142	1.13071
784.448	1.13225
784.753	1.13404
785.059	1.13767
785.365	1.138
785.67	1.14057
785.976	1.14183
786.281	1.14239
786.586	1.14408
786.892	1.14649
787.197	1.14695
787.502	1.15003
787.808	1.15232
788.113	1.15433
788.418	1.15685
788.723	1.15835
789.028	1.16119
789.333	1.1644
789.638	1.16598
789.942	1.16855
790.247	1.17223
790.552	1.1752
790.857	1.17969
791.161	1.18144
791.466	1.18373
791.77	1.18719
792.075	1.18956
792.379	1.1912
792.684	1.19356
792.988	1.1962
793.292	1.19709
793.597	1.19788
793.901	1.19798
794.205	1.19958
794.509	1.20292
794.813	1.20515
795.117	1.20761
795.421	1.21156
795.725	1.21599
796.029	1.22073
796.332	1.22397
796.636	1.22473
796.94	1.22839
797.243	1.22891
797.547	1.23062
797.85	1.2318
798.154	1.2338
798.457	1.23695
798.761	1.23888
799.064	1.24048
799.367	1.24312
799.67	1.24734
799.973	1.25125
800.277	1.25395
800.58	1.25652
800.883	1.26003
801.186	1.26232
801.488	1.26551
801.791	1.26806
802.094	1.26984
802.397	1.27242
802.699	1.27406
803.002	1.27693
803.305	1.28053
803.607	1.28376
803.91	1.28461
804.212	1.28731
804.515	1.28952
804.817	1.293
805.119	1.29746
805.421	1.30019
805.724	1.30289
806.026	1.30662
806.328	1.30823
806.63	1.31301
806.932	1.31659
807.234	1.31902
807.535	1.32173
807.837	1.32246
808.139	1.3254
808.441	1.32962
808.742	1.32986
809.044	1.33244
809.346	1.3334
809.647	1.3364
809.948	1.34403
810.25	1.34953
810.551	1.35361
810.853	1.36142
811.154	1.36485
811.455	1.37166
811.756	1.3747
812.057	1.37655
812.358	1.3789
812.659	1.38203
812.96	1.38153
813.261	1.38499
813.562	1.38804
813.863	1.39165
814.163	1.39429
814.464	1.39601
814.765	1.40083
815.065	1.40576
815.366	1.40918
815.666	1.41371
815.967	1.41778
816.267	1.42254
816.567	1.42891
816.868	1.4318
817.168	1.43529
817.468	1.44352
817.768	1.44764
818.068	1.45516
818.368	1.45901
818.668	1.46203
818.968	1.4692
819.268	1.47485
819.568	1.47695
819.867	1.47931
820.167	1.48114
820.467	1.48725
820.766	1.49495
821.066	1.49809
821.365	1.50319
821.665	1.50602
821.964	1.51242
822.263	1.51747
822.563	1.52146
822.862	1.52484
823.161	1.53167
823.46	1.53682
823.759	1.54233
824.058	1.5462
824.357	1.55151
824.656	1.55722
824.955	1.56196
825.254	1.56212
825.552	1.56787
825.851	1.57037
826.15	1.5742
826.448	1.57904
826.747	1.5836
827.045	1.5874
827.344	1.59538
827.642	1.59483
827.941	1.60512
828.239	1.61242
828.537	1.61988
828.835	1.62604
829.133	1.63343
829.432	1.6378
829.73	1.65002
830.028	1.65383
830.325	1.66107
830.623	1.66418
830.921	1.66761
831.219	1.67182
831.517	1.67709
831.814	1.68317
832.112	1.6857
832.409	1.68438
832.707	1.68507
833.004	1.69104
833.302	1.69305
833.599	1.69648
833.896	1.69381
834.194	1.69791
834.491	1.70533
834.788	1.71059
835.085	1.70607
835.382	1.70888
835.679	1.70904
835.976	1.70449
836.273	1.70742
836.57	1.70553
836.866	1.70562
837.163	1.70837
837.46	1.70925
837.756	1.70687
838.053	1.71716
838.349	1.71116
838.646	1.71035
838.942	1.70519
839.239	1.70613
839.535	1.69813
839.831	1.6979
840.127	1.69185
840.423	1.69265
840.72	1.68707
841.016	1.6899
841.312	1.68142
841.607	1.6827
841.903	1.6733
842.199	1.66743
842.495	1.66583
842.791	1.67094
843.086	1.66621
843.382	1.66801
843.677	1.66143
843.973	1.66978
844.268	1.6788
844.564	1.67318
844.859	1.66547
845.154	1.66489
845.45	1.65948
845.745	1.66211
846.04	1.65626
846.335	1.64933
846.63	1.64228
846.925	1.64013
847.22	1.63685
847.515	1.64016
847.81	1.63709
848.104	1.62789
848.399	1.61285
848.694	1.61514
848.988	1.59903
849.283	1.59867
849.578	1.58414
849.872	1.5762
850.166	1.58572
850.461	1.57894
850.755	1.56012
851.049	1.56043
851.343	1.53684
851.638	1.52529
851.932	1.5243
852.226	1.50243
852.52	1.48804
852.814	1.48358
853.107	1.48527
853.401	1.47629
853.695	1.47371
853.989	1.45092
854.282	1.43665
854.576	1.44219
854.869	1.43269
855.163	1.39484
855.456	1.41198
855.75	1.40068
856.043	1.38952
856.336	1.38155
856.63	1.38121
856.923	1.39416
857.216	1.40678
857.509	1.36225
857.802	1.35872
858.095	1.37307
858.388	1.36413
858.681	1.33685
858.974	1.30488
859.266	1.30385
859.559	1.29278
859.852	1.30412
860.144	1.30208
860.437	1.3185
860.729	1.28821
861.022	1.29532
861.314	1.25199
861.606	1.21353
861.899	1.18535
862.191	1.15688
862.483	1.10082
862.775	1.12575
863.067	1.0967
863.359	1.12038
863.651	1.13486
863.943	1.13118
864.235	1.13447
864.527	1.15431
864.819	1.14145
865.11	1.19579
865.402	1.18681
865.693	1.18767
865.985	1.19348
866.276	1.16993
866.568	1.16608
866.859	1.15172
867.151	1.14072
867.442	1.09663
867.733	1.10089
868.024	1.1326
868.315	1.17407
868.606	1.24264
868.897	1.24065
869.188	1.25628
869.479	1.27982
869.77	1.28986
870.061	1.24773
870.351	1.22983
870.642	1.208
870.933	1.245
871.223	1.24026
871.514	1.30345
871.804	1.33819
872.095	1.36592
872.385	1.39359
872.675	1.39935
