Data from no-cure_1e-7_Relative_16-13-38-209.txt Node
Date: Fri Aug 18 16:13:38 EDT 2023
User: UV-vis
Spectrometer: FLMS04918
Trigger mode: 0
Integration Time (sec): 1.000000E-1
Scans to average: 3
Electric dark correction enabled: true
Nonlinearity correction enabled: false
Boxcar width: 3
XAxis mode: Wavelengths
Number of Pixels in Spectrum: 2048
>>>>>Begin Spectral Data<<<<<
179.23	40.92025
179.611	39.87535
179.992	32.89029
180.373	35.34638
180.754	32.36559
181.134	29.52008
181.515	20.17162
181.896	-11.55951
182.276	-15.84741
182.657	-31.41321
183.038	-114.37098
183.418	-132.29285
183.799	-1735.18519
184.179	90.68768
184.56	-81.91489
184.94	-3.88128
185.32	-33.1793
185.701	-48.10798
186.081	-90.68582
186.461	-120.8384
186.842	51.18705
187.222	54.05453
187.602	54.89753
187.982	54.65784
188.362	54.77127
188.742	54.91227
189.122	54.92082
189.502	54.96304
189.882	55.06729
190.262	55.02834
190.642	55.20936
191.022	55.34617
191.402	55.0985
191.781	55.11576
192.161	55.24254
192.541	55.22801
192.92	55.22573
193.3	55.2013
193.68	55.1651
194.059	55.17094
194.439	55.06094
194.818	55.0876
195.198	55.17005
195.577	55.11687
195.957	55.21904
196.336	55.17036
196.715	55.46205
197.094	55.82063
197.474	55.63374
197.853	55.67415
198.232	55.72379
198.611	55.62325
198.99	55.7064
199.369	55.5036
199.748	55.33235
200.127	55.35748
200.506	55.3643
200.885	55.39456
201.264	55.39113
201.643	55.41511
202.022	55.48411
202.401	55.48159
202.779	55.72834
203.158	55.72468
203.537	55.53758
203.915	55.53731
204.294	55.45776
204.673	55.543
205.051	55.4523
205.43	55.26916
205.808	55.11516
206.187	55.09192
206.565	55.22148
206.943	55.32545
207.322	55.2692
207.7	55.3453
208.078	55.37251
208.456	55.46059
208.835	55.76843
209.213	55.65828
209.591	55.36882
209.969	55.29843
210.347	55.22184
210.725	55.11615
211.103	55.12226
211.481	55.01738
211.859	55.14307
212.237	55.33055
212.614	55.42294
212.992	55.45134
213.37	55.78556
213.748	56.03058
214.125	56.01877
214.503	56.03292
214.881	56.1015
215.258	55.92396
215.636	55.90094
216.013	55.74329
216.391	55.48155
216.768	55.43016
217.145	55.28789
217.523	55.21541
217.9	55.31842
218.277	55.38357
218.655	55.1529
219.032	55.21453
219.409	55.24677
219.786	55.28643
220.163	55.32481
220.54	55.43242
220.917	55.29315
221.294	55.50935
221.671	55.48108
222.048	55.61462
222.425	55.47625
222.802	55.43824
223.179	55.53768
223.556	55.77231
223.932	55.74486
224.309	55.74635
224.686	55.46934
225.062	55.55605
225.439	55.51646
225.815	55.28198
226.192	55.16842
226.568	55.14505
226.945	55.11282
227.321	55.26585
227.698	55.40402
228.074	55.50536
228.45	55.5546
228.827	55.71267
229.203	55.75239
229.579	55.75357
229.955	55.67869
230.331	55.63585
230.707	55.53284
231.083	55.60025
231.46	55.39431
231.835	55.29596
232.211	55.27759
232.587	55.30031
232.963	55.26773
233.339	55.48937
233.715	55.52847
234.091	55.58922
234.466	55.66576
234.842	55.70122
235.218	55.77808
235.593	55.82198
235.969	55.68875
236.344	55.65733
236.72	55.68823
237.095	55.71753
237.471	55.59862
237.846	55.5388
238.222	55.49639
238.597	55.40948
238.972	55.31192
239.348	55.27997
239.723	55.27832
240.098	55.36382
240.473	55.25736
240.848	55.28049
241.223	55.37322
241.598	55.35145
241.973	55.50494
242.348	55.59834
242.723	55.57907
243.098	55.79942
243.473	55.84363
243.848	55.76651
244.223	55.93978
244.597	55.87913
244.972	55.74056
245.347	55.95514
245.721	55.76538
246.096	55.79807
246.47	55.97306
246.845	55.80248
247.219	55.64425
247.594	55.68353
247.968	55.60576
248.343	55.73252
248.717	55.67169
249.091	55.6194
249.466	55.80395
249.84	55.98947
250.214	56.09112
250.588	56.06576
250.962	55.95513
251.336	55.85956
251.71	55.95374
252.084	56.01414
252.458	56.06321
252.832	55.96386
253.206	55.98808
253.58	56.08357
253.954	56.14663
254.328	56.1061
254.702	55.81284
255.075	55.69464
255.449	55.68046
255.823	55.6136
256.196	55.62728
256.57	55.76839
256.943	55.68535
257.317	55.80197
257.69	55.91511
258.064	55.9857
258.437	56.03434
258.81	55.9482
259.184	55.8979
259.557	55.91903
259.93	55.8563
260.303	55.68762
260.677	55.68947
261.05	55.59632
261.423	55.71162
261.796	55.63252
262.169	55.65115
262.542	55.65835
262.915	55.69465
263.288	55.62383
263.661	55.64197
264.033	55.68808
264.406	55.60746
264.779	55.54624
265.152	55.6434
265.524	55.72641
265.897	55.83779
266.27	55.96998
266.642	56.01204
267.015	56.17629
267.387	56.34112
267.76	56.36319
268.132	56.27845
268.504	56.21024
268.877	56.17494
269.249	56.14182
269.621	56.12648
269.994	56.14296
270.366	56.16997
270.738	56.19665
271.11	56.2415
271.482	56.13803
271.854	55.99251
272.226	55.96655
272.598	55.9124
272.97	55.94947
273.342	55.96148
273.714	56.04052
274.086	56.12721
274.458	56.35391
274.829	56.22485
275.201	56.3234
275.573	56.24849
275.944	56.26843
276.316	56.17342
276.688	56.19364
277.059	56.06347
277.431	56.13748
277.802	56.02283
278.173	56.10465
278.545	56.07179
278.916	56.12239
279.287	56.1379
279.659	56.07223
280.03	56.05468
280.401	56.00125
280.772	55.98604
281.143	55.8039
281.515	55.63688
281.886	55.61935
282.257	55.8952
282.628	56.60595
282.998	57.9277
283.369	60.57021
283.74	64.78761
284.111	70.22709
284.482	76.70623
284.853	83.33651
285.223	89.65174
285.594	95.59799
285.965	100.3244
286.335	103.53467
286.706	105.26826
287.076	105.69132
287.447	105.6913
287.817	105.6912
288.188	105.69178
288.558	105.69209
288.928	105.69244
289.299	105.69279
289.669	105.69293
290.039	105.69245
290.409	105.69188
290.779	105.69176
291.149	105.69204
291.52	105.69239
291.89	105.69126
292.26	105.69151
292.629	105.69162
292.999	105.69185
293.369	105.69246
293.739	105.69221
294.109	105.69181
294.479	105.69208
294.848	105.69185
295.218	105.69149
295.588	105.69202
295.957	105.69098
296.327	105.6911
296.696	105.69073
297.066	105.69056
297.435	105.69075
297.805	105.69121
298.174	105.69146
298.544	105.6915
298.913	105.69141
299.282	105.69228
299.651	105.69265
300.021	105.69262
300.39	105.69241
300.759	105.69181
301.128	105.69218
301.497	105.69181
301.866	105.69121
302.235	105.69168
302.604	105.6916
302.973	105.69194
303.342	105.69193
303.71	105.69199
304.079	105.69193
304.448	105.69241
304.817	105.69167
305.185	105.69172
305.554	105.69172
305.923	105.69209
306.291	105.69188
306.66	105.69205
307.028	105.69233
307.397	105.69238
307.765	105.69249
308.133	105.69289
308.502	105.69248
308.87	105.69271
309.238	105.69271
309.606	105.69226
309.975	105.69285
310.343	105.69314
310.711	105.69253
311.079	105.69294
311.447	105.69351
311.815	105.69383
312.183	105.6937
312.551	105.69376
312.919	105.69323
313.286	105.6935
313.654	105.69352
314.022	105.6924
314.39	105.69166
314.757	105.69165
315.125	105.69103
315.492	105.69132
315.86	105.69112
316.228	105.69064
316.595	105.69133
316.962	105.69226
317.33	105.69221
317.697	105.69229
318.065	105.69264
318.432	105.69264
318.799	105.69279
319.166	105.69253
319.534	105.69241
319.901	105.69287
320.268	105.69334
320.635	105.69305
321.002	105.69323
321.369	105.69305
321.736	105.69327
322.103	105.69261
322.47	105.69281
322.836	105.69323
323.203	105.69294
323.57	105.69237
323.937	105.69244
324.303	105.69253
324.67	105.69293
325.037	105.69269
325.403	105.69183
325.77	105.69228
326.136	105.69352
326.503	105.69344
326.869	105.69328
327.235	105.69301
327.602	105.69294
327.968	105.69334
328.334	105.69354
328.7	105.69333
329.067	105.69401
329.433	105.69425
329.799	105.69462
330.165	105.69395
330.531	105.69427
330.897	105.69416
331.263	105.69357
331.629	105.69354
331.995	105.69333
332.36	105.69337
332.726	105.69416
333.092	105.69415
333.458	105.69402
333.823	105.69389
334.189	105.69363
334.554	105.69368
334.92	105.69319
335.286	105.69258
335.651	105.6915
336.016	105.69101
336.382	105.69096
336.747	105.69079
337.113	105.69085
337.478	105.69125
337.843	105.69183
338.208	105.69208
338.573	105.6925
338.939	105.69248
339.304	105.69278
339.669	105.69287
340.034	105.69286
340.399	105.69302
340.764	105.69346
341.129	105.69326
341.493	105.6932
341.858	105.69326
342.223	105.69352
342.588	105.69374
342.952	105.69315
343.317	105.69305
343.682	105.69311
344.046	105.69331
344.411	105.69337
344.775	105.69262
345.14	105.69282
345.504	105.69322
345.869	105.69306
346.233	105.69319
346.597	105.69328
346.962	105.69327
347.326	105.69329
347.69	105.69298
348.054	105.69299
348.418	105.69329
348.782	105.69319
349.146	105.69288
349.51	105.69232
349.874	105.69255
350.238	105.69272
350.602	105.69258
350.966	105.69267
351.33	105.6924
351.693	105.69277
352.057	105.6933
352.421	105.69365
352.784	105.69315
353.148	105.69281
353.512	105.6924
353.875	105.69318
354.239	105.6933
354.602	105.69277
354.966	105.69223
355.329	105.69274
355.692	105.69333
356.056	105.69358
356.419	105.69317
356.782	105.69342
357.145	105.69355
357.508	105.69354
357.871	105.69307
358.234	105.69257
358.597	105.69231
358.96	105.69226
359.323	105.69145
359.686	105.69118
360.049	105.69185
360.412	105.69201
360.775	105.69241
361.137	105.69201
361.5	105.69194
361.863	105.69232
362.225	105.69322
362.588	105.69328
362.951	105.6935
363.313	105.69306
363.675	105.69345
364.038	105.69337
364.4	105.69352
364.763	105.69282
365.125	105.69264
365.487	105.69267
365.849	105.69303
366.212	105.69253
366.574	105.69323
366.936	105.69347
367.298	105.69376
367.66	105.69359
368.022	105.6933
368.384	105.69309
368.746	105.69431
369.108	105.69349
369.469	105.69282
369.831	105.69239
370.193	105.69225
370.555	105.6927
370.916	105.69288
371.278	105.69209
371.64	105.69181
372.001	105.69208
372.363	105.69175
372.724	105.69233
373.086	105.69241
373.447	105.69264
373.808	105.69312
374.17	105.69307
374.531	105.69277
374.892	105.69375
375.253	105.69271
375.615	105.6924
375.976	105.69151
376.337	105.69142
376.698	105.69254
377.059	105.69294
377.42	105.69343
377.781	105.69424
378.141	105.69419
378.502	105.69487
378.863	105.69464
379.224	105.69417
379.585	105.69397
379.945	105.69392
380.306	105.6939
380.666	105.69419
381.027	105.69405
381.388	105.69378
381.748	105.69395
382.108	105.69392
382.469	105.69299
382.829	105.6927
383.19	105.6925
383.55	105.69246
383.91	105.69282
384.27	105.69213
384.63	105.69166
384.991	105.6921
385.351	105.69191
385.711	105.69096
386.071	105.69095
386.431	105.69093
386.791	105.69098
387.15	105.69202
387.51	105.69197
387.87	105.69188
388.23	105.69264
388.589	105.69307
388.949	105.69345
389.309	105.69408
389.668	105.69354
390.028	105.69336
390.387	105.69391
390.747	105.69387
391.106	105.69415
391.466	105.69379
391.825	105.69414
392.184	105.69453
392.544	105.69483
392.903	105.69471
393.262	105.6945
393.621	105.69389
393.98	105.69437
394.339	105.69351
394.698	105.69278
395.057	105.69289
395.416	105.69304
395.775	105.69333
396.134	105.69335
396.493	105.69272
396.852	105.6931
397.211	105.69383
397.569	105.69375
397.928	105.69376
398.287	105.6935
398.645	105.69414
399.004	105.69402
399.362	105.69424
399.721	105.69384
400.079	105.6935
400.438	105.69393
400.796	105.69449
401.154	105.69413
401.512	105.69418
401.871	105.69417
402.229	105.69453
402.587	105.69503
402.945	105.69434
403.303	105.6935
403.661	105.69346
404.019	105.69355
404.377	105.69321
404.735	105.69275
405.093	105.69182
405.451	105.69221
405.808	105.69253
406.166	105.69217
406.524	105.69225
406.882	105.69137
407.239	105.69158
407.597	105.69202
407.954	105.69173
408.312	105.69201
408.669	105.69201
409.027	105.69192
409.384	105.69294
409.741	105.69257
410.099	105.69197
410.456	105.69168
410.813	105.69117
411.17	105.69116
411.527	105.69089
411.884	105.69073
412.242	105.69144
412.599	105.69239
412.956	105.69289
413.312	105.69342
413.669	105.69403
414.026	105.6945
414.383	105.69463
414.74	105.69382
415.096	105.69328
415.453	105.69287
415.81	105.69302
416.166	105.69198
416.523	105.69158
416.879	105.69185
417.236	105.69247
417.592	105.6924
417.949	105.69241
418.305	105.69244
418.661	105.69283
419.018	105.69338
419.374	105.69288
419.73	105.6933
420.086	105.69375
420.442	105.69366
420.798	105.69357
421.154	105.69366
421.51	105.6936
421.866	105.69375
422.222	105.69294
422.578	105.69277
422.934	105.69281
423.29	105.69303
423.646	105.69296
424.001	105.69237
424.357	105.69185
424.713	105.69246
425.068	105.6922
425.424	105.69223
425.779	105.69261
426.135	105.69334
426.49	105.69376
426.845	105.6943
427.201	105.69427
427.556	105.69437
427.911	105.69477
428.266	105.69381
428.622	105.69311
428.977	105.69312
429.332	105.69359
429.687	105.69346
430.042	105.69345
430.397	105.69277
430.752	105.69317
431.107	105.69342
431.461	105.69343
431.816	105.69315
432.171	105.6927
432.526	105.69257
432.88	105.69277
433.235	105.69199
433.59	105.6922
433.944	105.69214
434.299	105.69266
434.653	105.69273
435.008	105.69337
435.362	105.69338
435.716	105.69434
436.071	105.69382
436.425	105.69403
436.779	105.69358
437.133	105.69405
437.487	105.6937
437.841	105.69425
438.195	105.69447
438.549	105.69477
438.903	105.69459
439.257	105.6949
439.611	105.69485
439.965	105.69441
440.319	105.69487
440.673	105.6947
441.026	105.69467
441.38	105.69478
441.734	105.69478
442.087	105.69446
442.441	105.69466
442.794	105.69378
443.148	105.69352
443.501	105.69354
443.855	105.69338
444.208	105.69302
444.561	105.69277
444.915	105.69305
445.268	105.69309
445.621	105.6927
445.974	105.69279
446.327	105.69245
446.68	105.69228
447.033	105.69312
447.386	105.69304
447.739	105.69335
448.092	105.69375
448.445	105.69352
448.798	105.69354
449.15	105.69419
449.503	105.69377
449.856	105.69398
450.209	105.69426
450.561	105.69377
450.914	105.69435
451.266	105.69474
451.619	105.69434
451.971	105.69424
452.323	105.69406
452.676	105.69318
453.028	105.69401
453.38	105.69321
453.733	105.69302
454.085	105.6926
454.437	105.69288
454.789	105.6929
455.141	105.69371
455.493	105.69353
455.845	105.69407
456.197	105.69399
456.549	105.69414
456.901	105.69427
457.253	105.69424
457.604	105.69387
457.956	105.69321
458.308	105.69349
458.659	105.69379
459.011	105.6936
459.362	105.69317
459.714	105.69312
460.065	105.69312
460.417	105.69349
460.768	105.69321
461.12	105.69266
461.471	105.69323
461.822	105.69376
462.173	105.69395
462.525	105.69415
462.876	105.6941
463.227	105.69345
463.578	105.69387
463.929	105.69335
464.28	105.69258
464.631	105.69209
464.982	105.69237
465.332	105.69222
465.683	105.69261
466.034	105.69244
466.385	105.69245
466.735	105.69241
467.086	105.69248
467.437	105.69256
467.787	105.69257
468.138	105.69237
468.488	105.69287
468.839	105.69319
469.189	105.69314
469.539	105.6933
469.89	105.69286
470.24	105.69271
470.59	105.69289
470.94	105.69303
471.29	105.69264
471.64	105.69307
471.99	105.69342
472.34	105.69383
472.69	105.69358
473.04	105.69392
473.39	105.69379
473.74	105.69415
474.09	105.69406
474.439	105.69405
474.789	105.69376
475.139	105.69429
475.488	105.69394
475.838	105.69392
476.188	105.69379
476.537	105.69399
476.886	105.69376
477.236	105.6931
477.585	105.69309
477.935	105.69294
478.284	105.6928
478.633	105.69279
478.982	105.69278
479.331	105.69287
479.68	105.69333
480.03	105.69346
480.379	105.69381
480.728	105.69353
481.076	105.69363
481.425	105.69378
481.774	105.69358
482.123	105.69323
482.472	105.69326
482.821	105.69344
483.169	105.69373
483.518	105.69378
483.866	105.69368
484.215	105.69362
484.563	105.69394
484.912	105.69338
485.26	105.69302
485.609	105.69353
485.957	105.6936
486.305	105.69314
486.654	105.69342
487.002	105.69413
487.35	105.69443
487.698	105.69426
488.046	105.69333
488.394	105.69321
488.742	105.6935
489.09	105.69353
489.438	105.69314
489.786	105.69386
490.134	105.69403
490.482	105.69495
490.829	105.69443
491.177	105.69495
491.525	105.69485
491.872	105.69432
492.22	105.69397
492.567	105.69378
492.915	105.69304
493.262	105.69339
493.61	105.69233
493.957	105.69281
494.304	105.69285
494.652	105.69319
494.999	105.69352
495.346	105.69344
495.693	105.69371
496.04	105.69466
496.387	105.69402
496.734	105.69438
497.081	105.69392
497.428	105.69381
497.775	105.6941
498.122	105.69403
498.469	105.6936
498.816	105.69413
499.162	105.69368
499.509	105.69358
499.856	105.69397
500.202	105.69407
500.549	105.69399
500.895	105.69387
501.242	105.69361
501.588	105.69392
501.935	105.69365
502.281	105.69345
502.627	105.69339
502.973	105.69298
503.32	105.69266
503.666	105.69257
504.012	105.69242
504.358	105.69232
504.704	105.69151
505.05	105.6916
505.396	105.69246
505.742	105.69287
506.088	105.6931
506.433	105.69323
506.779	105.6935
507.125	105.69374
507.471	105.69333
507.816	105.69287
508.162	105.69339
508.507	105.69365
508.853	105.6939
509.198	105.69369
509.544	105.69458
509.889	105.69497
510.234	105.69472
510.58	105.69445
510.925	105.69423
511.27	105.69419
511.615	105.69437
511.96	105.69349
512.306	105.69334
512.651	105.69317
512.996	105.69273
513.341	105.69247
513.685	105.69206
514.03	105.69257
514.375	105.69359
514.72	105.69381
515.065	105.6944
515.409	105.69448
515.754	105.69419
516.099	105.69477
516.443	105.69415
516.788	105.69349
517.132	105.69296
517.476	105.69255
517.821	105.69287
518.165	105.69296
518.51	105.69231
518.854	105.69269
519.198	105.69267
519.542	105.69329
519.886	105.69341
520.23	105.69309
520.574	105.69317
520.918	105.69346
521.262	105.69338
521.606	105.69317
521.95	105.69266
522.294	105.69263
522.638	105.6926
522.981	105.6926
523.325	105.69253
523.669	105.69287
524.012	105.69309
524.356	105.6931
524.699	105.69349
525.043	105.69333
525.386	105.69358
525.73	105.69666
526.073	105.69597
526.416	105.69591
526.76	105.69638
527.103	105.69634
527.446	105.69752
527.789	105.69753
528.132	105.69489
528.475	105.69585
528.818	105.69589
529.161	105.69536
529.504	105.6947
529.847	105.69385
530.19	105.69371
530.532	105.69317
530.875	105.69185
531.218	105.6918
531.56	105.69192
531.903	105.69273
532.246	105.69253
532.588	105.69236
532.93	105.69278
533.273	105.69351
533.615	105.69352
533.958	105.69369
534.3	105.69293
534.642	105.69384
534.984	105.694
535.326	105.69354
535.669	105.69379
536.011	105.69387
536.353	105.69383
536.695	105.69448
537.037	105.69427
537.378	105.69399
537.72	105.69376
538.062	105.69314
538.404	105.69263
538.746	105.69264
539.087	105.69256
539.429	105.69238
539.77	105.69271
540.112	105.69323
540.454	105.69399
540.795	105.69435
541.136	105.69442
541.478	105.69451
541.819	105.69409
542.16	105.69417
542.502	105.69402
542.843	105.69371
543.184	105.69403
543.525	105.69384
543.866	105.6932
544.207	105.6931
544.548	105.69299
544.889	105.69255
545.23	105.6924
545.571	105.69277
545.911	105.6927
546.252	105.69328
546.593	105.69359
546.934	105.69349
547.274	105.69406
547.615	105.69414
547.955	105.69382
548.296	105.69433
548.636	105.69426
548.977	105.69394
549.317	105.69464
549.657	105.69513
549.997	105.69551
550.338	105.69503
550.678	105.69474
551.018	105.69424
551.358	105.69469
551.698	105.69438
552.038	105.69378
552.378	105.69338
552.718	105.69425
553.058	105.69449
553.398	105.69528
553.737	105.69498
554.077	105.69513
554.417	105.69507
554.756	105.69534
555.096	105.69456
555.435	105.69464
555.775	105.69392
556.114	105.69402
556.454	105.69338
556.793	105.69363
557.133	105.6936
557.472	105.69345
557.811	105.69321
558.15	105.69353
558.489	105.69336
558.829	105.69376
559.168	105.69353
559.507	105.69339
559.846	105.69394
560.184	105.69391
560.523	105.69397
560.862	105.69454
561.201	105.69477
561.54	105.69509
561.878	105.69502
562.217	105.69473
562.556	105.69451
562.894	105.69543
563.233	105.69543
563.571	105.69542
563.91	105.69511
564.248	105.6951
564.586	105.69519
564.925	105.69543
565.263	105.69386
565.601	105.6933
565.939	105.69287
566.277	105.69298
566.616	105.69319
566.954	105.69306
567.292	105.69351
567.63	105.69505
567.967	105.69543
568.305	105.69531
568.643	105.69491
568.981	105.69465
569.319	105.69488
569.656	105.69462
569.994	105.69381
570.331	105.69333
570.669	105.69345
571.006	105.69377
571.344	105.69342
571.681	105.69286
572.019	105.69257
572.356	105.69291
572.693	105.69349
573.03	105.69357
573.368	105.69333
573.705	105.69363
574.042	105.69408
574.379	105.69366
574.716	105.69303
575.053	105.69265
575.39	105.69242
575.727	105.69246
576.063	105.69244
576.4	105.69298
576.737	105.69323
577.074	105.69337
577.41	105.69369
577.747	105.69385
578.083	105.69358
578.42	105.69336
578.756	105.69289
579.093	105.69351
579.429	105.69361
579.766	105.69335
580.102	105.69373
580.438	105.69398
580.774	105.69419
581.11	105.69407
581.446	105.69375
581.782	105.69327
582.119	105.69327
582.454	105.69304
582.79	105.6931
583.126	105.6933
583.462	105.69359
583.798	105.69299
584.134	105.69305
584.469	105.69321
584.805	105.69294
585.141	105.69344
585.476	105.69346
585.812	105.69315
586.147	105.69346
586.482	105.69392
586.818	105.69353
587.153	105.69422
587.488	105.69382
587.824	105.69358
588.159	105.69344
588.494	105.69353
588.829	105.69323
589.164	105.69377
589.499	105.69344
589.834	105.69314
590.169	105.69295
590.504	105.69295
590.839	105.69266
591.174	105.69256
591.508	105.69225
591.843	105.69245
592.178	105.69299
592.512	105.69287
592.847	105.69253
593.181	105.69267
593.516	105.69266
593.85	105.69287
594.185	105.69231
594.519	105.69173
594.853	105.69174
595.187	105.69264
595.522	105.69305
595.856	105.69336
596.19	105.69314
596.524	105.69352
596.858	105.69399
597.192	105.6944
597.526	105.69383
597.86	105.69391
598.194	105.69422
598.527	105.69399
598.861	105.6932
599.195	105.69347
599.528	105.69282
599.862	105.69262
600.196	105.69233
600.529	105.692
600.863	105.69221
601.196	105.69314
601.529	105.69264
601.863	105.69333
602.196	105.69343
602.529	105.69318
602.862	105.69355
603.196	105.69367
603.529	105.69342
603.862	105.69297
604.195	105.69293
604.528	105.69337
604.861	105.69384
605.193	105.69361
605.526	105.69351
605.859	105.69289
606.192	105.69326
606.524	105.69313
606.857	105.69294
607.19	105.69295
607.522	105.69232
607.855	105.6926
608.187	105.69287
608.52	105.6932
608.852	105.69333
609.184	105.69333
609.517	105.6932
609.849	105.69363
610.181	105.69349
610.513	105.69427
610.845	105.69373
611.177	105.694
611.509	105.69361
611.841	105.69353
612.173	105.69307
612.505	105.69314
612.837	105.69271
613.169	105.69249
613.5	105.69267
613.832	105.69313
614.164	105.69303
614.495	105.69382
614.827	105.69341
615.158	105.69314
615.49	105.69405
615.821	105.69363
616.152	105.69374
616.484	105.69374
616.815	105.69317
617.146	105.69357
617.477	105.6941
617.808	105.69399
618.14	105.69378
618.471	105.69295
618.802	105.69319
619.133	105.69322
619.463	105.69281
619.794	105.69238
620.125	105.69228
620.456	105.69224
620.787	105.69279
621.117	105.69293
621.448	105.69334
621.778	105.69365
622.109	105.6933
622.439	105.69287
622.77	105.69269
623.1	105.69317
623.43	105.69285
623.761	105.69341
624.091	105.69368
624.421	105.69375
624.751	105.69413
625.081	105.69447
625.412	105.69375
625.742	105.69366
626.072	105.69289
626.401	105.69254
626.731	105.69296
627.061	105.6929
627.391	105.69265
627.721	105.69321
628.05	105.69303
628.38	105.69315
628.71	105.69397
629.039	105.69409
629.369	105.69443
629.698	105.69405
630.028	105.69392
630.357	105.69431
630.686	105.6941
631.015	105.69359
631.345	105.69366
631.674	105.69295
632.003	105.69357
632.332	105.69407
632.661	105.69401
632.99	105.69407
633.319	105.69328
633.648	105.69241
633.977	105.69288
634.306	105.69224
634.634	105.69225
634.963	105.69232
635.292	105.6924
635.62	105.6931
635.949	105.69406
636.277	105.69331
636.606	105.69387
636.934	105.69277
637.263	105.69267
637.591	105.69272
637.919	105.69304
638.248	105.69265
638.576	105.69343
638.904	105.69343
639.232	105.69399
639.56	105.69415
639.888	105.69416
640.216	105.69403
640.544	105.6937
640.872	105.69342
641.2	105.6936
641.528	105.69389
641.855	105.69367
642.183	105.69366
642.511	105.69461
642.838	105.69513
643.166	105.69472
643.493	105.69417
643.821	105.69381
644.148	105.69336
644.475	105.69266
644.803	105.69087
645.13	105.69022
645.457	105.69102
645.784	105.69125
646.112	105.69061
646.439	105.6916
646.766	105.69245
647.093	105.69269
647.42	105.69296
647.746	105.69283
648.073	105.69327
648.4	105.69374
648.727	105.69275
649.053	105.69285
649.38	105.69322
649.707	105.69329
650.033	105.69294
650.36	105.69286
650.686	105.69312
651.013	105.69303
651.339	105.69267
651.665	105.69264
651.992	105.69236
652.318	105.69242
652.644	105.69241
652.97	105.69172
653.296	105.69177
653.622	105.69169
653.948	105.69121
654.274	105.69138
654.6	105.6919
654.926	105.69214
655.252	105.69318
655.578	105.69387
655.903	105.69343
656.229	105.69336
656.555	105.6929
656.88	105.6924
657.206	105.69184
657.531	105.69136
657.857	105.69053
658.182	105.69125
658.507	105.69191
658.833	105.69275
659.158	105.69238
659.483	105.69255
659.808	105.69241
660.133	105.69264
660.458	105.69217
660.783	105.6919
661.108	105.69157
661.433	105.69157
661.758	105.69134
662.083	105.69103
662.408	105.69119
662.732	105.69153
663.057	105.69162
663.382	105.69116
663.706	105.69174
664.031	105.69189
664.355	105.69252
664.68	105.69213
665.004	105.6918
665.328	105.69143
665.653	105.69173
665.977	105.69174
666.301	105.69137
666.625	105.69166
666.949	105.69184
667.273	105.69249
667.597	105.69252
667.921	105.69286
668.245	105.69321
668.569	105.69329
668.893	105.69267
669.217	105.69274
669.54	105.69238
669.864	105.69267
670.188	105.69232
670.511	105.69162
670.835	105.6915
671.158	105.69146
671.482	105.6914
671.805	105.69122
672.128	105.69145
672.452	105.69254
672.775	105.69286
673.098	105.69302
673.421	105.69341
673.744	105.69394
674.068	105.69382
674.391	105.69365
674.714	105.69302
675.036	105.69309
675.359	105.69313
675.682	105.6933
676.005	105.69298
676.328	105.69302
676.65	105.69246
676.973	105.69223
677.295	105.69181
677.618	105.69212
677.94	105.69192
678.263	105.69222
678.585	105.692
678.908	105.69223
679.23	105.69267
679.552	105.69282
679.874	105.69256
680.196	105.69229
680.519	105.69198
680.841	105.69263
681.163	105.69291
681.485	105.69238
681.807	105.69252
682.128	105.69234
682.45	105.69254
682.772	105.6929
683.094	105.69258
683.415	105.6931
683.737	105.6933
684.059	105.69335
684.38	105.69385
684.702	105.69362
685.023	105.69322
685.344	105.69353
685.666	105.6931
685.987	105.69286
686.308	105.6928
686.629	105.6926
686.95	105.69283
687.272	105.6928
687.593	105.69234
687.914	105.69175
688.235	105.6919
688.555	105.69224
688.876	105.69237
689.197	105.69223
689.518	105.69244
689.839	105.69298
690.159	105.6922
690.48	105.69204
690.8	105.69215
691.121	105.69245
691.441	105.69248
691.762	105.69228
692.082	105.69197
692.402	105.69333
692.723	105.69317
693.043	105.69298
693.363	105.69301
693.683	105.69255
694.003	105.69248
694.323	105.69223
694.643	105.69266
694.963	105.69315
695.283	105.69254
695.603	105.69174
695.923	105.69212
696.243	105.69252
696.562	105.69224
696.882	105.69182
697.202	105.69149
697.521	105.69229
697.841	105.69322
698.16	105.69333
698.479	105.69288
698.799	105.69302
699.118	105.69278
699.437	105.69314
699.757	105.69244
700.076	105.69174
700.395	105.69184
700.714	105.69177
701.033	105.69244
701.352	105.69239
701.671	105.69232
701.99	105.69249
702.308	105.69299
702.627	105.69277
702.946	105.69336
703.265	105.69298
703.583	105.6936
703.902	105.69353
704.22	105.69371
704.539	105.69312
704.857	105.69286
705.176	105.69254
705.494	105.69273
705.812	105.69198
706.131	105.69182
706.449	105.69174
706.767	105.69231
707.085	105.69313
707.403	105.69319
707.721	105.6931
708.039	105.69331
708.357	105.69362
708.675	105.69349
708.993	105.69311
709.31	105.69283
709.628	105.69272
709.946	105.69298
710.263	105.69295
710.581	105.69265
710.898	105.69274
711.216	105.69262
711.533	105.69266
711.851	105.69295
712.168	105.69295
712.485	105.69303
712.802	105.69331
713.12	105.69336
713.437	105.69313
713.754	105.69288
714.071	105.69247
714.388	105.69252
714.705	105.69267
715.022	105.69262
715.338	105.69239
715.655	105.69269
715.972	105.69207
716.289	105.69231
716.605	105.69158
716.922	105.69165
717.238	105.69221
717.555	105.6926
717.871	105.69256
718.188	105.69341
718.504	105.69327
718.82	105.69362
719.136	105.69293
719.453	105.69264
719.769	105.69186
720.085	105.69173
720.401	105.69137
720.717	105.69196
721.033	105.6918
721.349	105.69225
721.665	105.6923
721.98	105.69341
722.296	105.69368
722.612	105.69423
722.927	105.69369
723.243	105.69389
723.559	105.69425
723.874	105.69395
724.19	105.69286
724.505	105.69299
724.82	105.6923
725.136	105.69256
725.451	105.69213
725.766	105.69153
726.081	105.69061
726.396	105.69098
726.711	105.69054
727.026	105.69083
727.341	105.69098
727.656	105.69143
727.971	105.69152
728.286	105.6922
728.601	105.69196
728.916	105.69222
729.23	105.6922
729.545	105.69144
729.859	105.69144
730.174	105.69164
730.488	105.69125
730.803	105.6919
731.117	105.69225
731.431	105.69248
731.746	105.69327
732.06	105.6931
732.374	105.69307
732.688	105.69379
733.002	105.69361
733.316	105.69342
733.63	105.69336
733.944	105.69318
734.258	105.69349
734.572	105.69335
734.886	105.69286
735.199	105.69248
735.513	105.69271
735.827	105.69288
736.14	105.69291
736.454	105.69304
736.767	105.69291
737.081	105.69286
737.394	105.69336
737.708	105.6926
738.021	105.6925
738.334	105.69234
738.647	105.69205
738.96	105.69214
739.273	105.69262
739.587	105.69237
739.9	105.69208
740.212	105.69161
740.525	105.69152
740.838	105.69152
741.151	105.69207
741.464	105.69183
741.776	105.69154
742.089	105.69239
742.402	105.69214
742.714	105.69246
743.027	105.69275
743.339	105.69208
743.651	105.69265
743.964	105.69313
744.276	105.69305
744.588	105.69335
744.901	105.69304
745.213	105.69286
745.525	105.69273
745.837	105.6917
746.149	105.6915
746.461	105.69138
746.773	105.6919
747.085	105.69216
747.396	105.69207
747.708	105.6927
748.02	105.69328
748.331	105.69325
748.643	105.69371
748.955	105.69344
749.266	105.69343
749.577	105.69381
749.889	105.69353
750.2	105.69373
750.512	105.69427
750.823	105.69398
751.134	105.69386
751.445	105.69416
751.756	105.69415
752.067	105.69361
752.378	105.69371
752.689	105.69386
753	105.69379
753.311	105.69401
753.622	105.69361
753.932	105.69387
754.243	105.69442
754.554	105.69371
754.864	105.69307
755.175	105.69338
755.485	105.69347
755.796	105.69294
756.106	105.6925
756.417	105.69248
756.727	105.69303
757.037	105.69349
757.347	105.69299
757.658	105.69297
757.968	105.69339
758.278	105.69328
758.588	105.69363
758.898	105.69307
759.208	105.6927
759.517	105.69322
759.827	105.69301
760.137	105.69303
760.447	105.69326
760.756	105.69286
761.066	105.69317
761.375	105.69272
761.685	105.69209
761.994	105.69208
762.304	105.69242
762.613	105.6918
762.922	105.69151
763.232	105.6914
763.541	105.69141
763.85	105.6915
764.159	105.69114
764.468	105.69121
764.777	105.6912
765.086	105.69135
765.395	105.69154
765.704	105.69141
766.013	105.69135
766.321	105.69113
766.63	105.6904
766.939	105.69071
767.247	105.69085
767.556	105.69009
767.864	105.6904
768.173	105.69039
768.481	105.6908
768.789	105.69105
769.098	105.69143
769.406	105.69154
769.714	105.69216
770.022	105.69218
770.33	105.69264
770.638	105.69272
770.946	105.69264
771.254	105.6921
771.562	105.69209
771.87	105.692
772.178	105.6922
772.486	105.69202
772.793	105.69225
773.101	105.69234
773.408	105.69228
773.716	105.69246
774.023	105.69249
774.331	105.69247
774.638	105.69238
774.946	105.69209
775.253	105.69173
775.56	105.69233
775.867	105.69217
776.174	105.69231
776.481	105.69222
776.788	105.69241
777.095	105.69326
777.402	105.69395
777.709	105.69339
778.016	105.6935
778.323	105.69288
778.63	105.69317
778.936	105.69317
779.243	105.69209
779.549	105.69136
779.856	105.69146
780.162	105.69132
780.469	105.6918
780.775	105.69133
781.082	105.69112
781.388	105.69126
781.694	105.69172
782	105.69146
782.306	105.69138
782.612	105.69208
782.918	105.69295
783.224	105.69248
783.53	105.69224
783.836	105.69267
784.142	105.6936
784.448	105.6933
784.753	105.69272
785.059	105.69218
785.365	105.69323
785.67	105.69411
785.976	105.69416
786.281	105.69374
786.586	105.69389
786.892	105.69376
787.197	105.6936
787.502	105.69307
787.808	105.69231
788.113	105.6913
788.418	105.6918
788.723	105.69196
789.028	105.69213
789.333	105.69289
789.638	105.69307
789.942	105.69401
790.247	105.69458
790.552	105.69403
790.857	105.69461
791.161	105.69462
791.466	105.69381
791.77	105.69383
792.075	105.69344
792.379	105.69415
792.684	105.69446
792.988	105.69358
793.292	105.69349
793.597	105.69361
793.901	105.69346
794.205	105.69336
794.509	105.69279
794.813	105.69197
795.117	105.69228
795.421	105.69277
795.725	105.69294
796.029	105.69275
796.332	105.6926
796.636	105.69201
796.94	105.69241
797.243	105.69248
797.547	105.69239
797.85	105.69192
798.154	105.69257
798.457	105.692
798.761	105.69213
799.064	105.69214
799.367	105.69213
799.67	105.69212
799.973	105.69214
800.277	105.69132
800.58	105.69175
800.883	105.69174
801.186	105.69198
801.488	105.69213
801.791	105.69153
802.094	105.69184
802.397	105.69199
802.699	105.69159
803.002	105.69252
803.305	105.69206
803.607	105.69221
803.91	105.69239
804.212	105.69206
804.515	105.69265
804.817	105.69362
805.119	105.6926
805.421	105.6925
805.724	105.6918
806.026	105.69236
806.328	105.69297
806.63	105.69246
806.932	105.69233
807.234	105.69266
807.535	105.69302
807.837	105.69367
808.139	105.69354
808.441	105.69355
808.742	105.69365
809.044	105.69339
809.346	105.69359
809.647	105.69373
809.948	105.69353
810.25	105.69323
810.551	105.69338
810.853	105.69287
811.154	105.69331
811.455	105.69321
811.756	105.69336
812.057	105.69322
812.358	105.69339
812.659	105.69302
812.96	105.69373
813.261	105.69378
813.562	105.69362
813.863	105.69283
814.163	105.69318
814.464	105.69281
814.765	105.69295
815.065	105.69272
815.366	105.69209
815.666	105.69215
815.967	105.69293
816.267	105.69304
816.567	105.69303
816.868	105.69249
817.168	105.6925
817.468	105.6926
817.768	105.69288
818.068	105.69254
818.368	105.66381
818.668	105.63743
818.968	105.46598
819.268	105.18757
819.568	104.85373
819.867	104.5323
820.167	104.12184
820.467	103.72246
820.766	103.15538
821.066	102.60055
821.365	102.10992
821.665	101.59489
821.964	100.93255
822.263	100.40203
822.563	99.62763
822.862	98.9073
823.161	98.27262
823.46	97.67165
823.759	97.00349
824.058	96.30999
824.357	95.5668
824.656	94.76453
824.955	94.04312
825.254	93.19873
825.552	92.37322
825.851	91.60973
826.15	90.75637
826.448	89.67342
826.747	88.85148
827.045	88.00046
827.344	87.2967
827.642	86.43487
827.941	85.42182
828.239	84.36492
828.537	83.3161
828.835	82.27171
829.133	81.24968
829.432	80.18331
829.73	79.0857
830.028	78.1309
830.325	77.34819
830.623	76.75489
830.921	76.13864
831.219	75.52399
831.517	74.81166
831.814	74.24226
832.112	73.62515
832.409	73.11005
832.707	72.52271
833.004	71.97426
833.302	71.30361
833.599	70.88022
833.896	70.35679
834.194	69.88063
834.491	69.31136
834.788	68.868
835.085	68.33584
835.382	67.9762
835.679	67.47131
835.976	67.11362
836.273	66.82142
836.57	66.64615
836.866	66.46539
837.163	66.32429
837.46	66.27227
837.756	66.13036
838.053	66.11202
838.349	66.04205
838.646	66.01986
838.942	65.88816
839.239	65.83703
839.535	65.67883
839.831	65.6372
840.127	65.46218
840.423	65.32734
840.72	65.17005
841.016	65.01812
841.312	64.90702
841.607	64.80332
841.903	64.77541
842.199	64.76688
842.495	64.70399
842.791	64.65677
843.086	64.60601
843.382	64.48527
843.677	64.35786
843.973	64.20841
844.268	64.00409
844.564	63.79292
844.859	63.58364
845.154	63.4817
845.45	63.53175
845.745	63.46977
846.04	63.31165
846.335	63.07647
846.63	62.91993
846.925	62.82709
847.22	62.67737
847.515	62.26271
847.81	62.05387
848.104	61.97829
848.399	61.973
848.694	61.98552
848.988	61.6946
849.283	61.41793
849.578	61.20771
849.872	60.77236
850.166	60.17334
850.461	59.58603
850.755	59.21427
851.049	58.81854
851.343	58.57755
851.638	58.10161
851.932	57.91604
852.226	57.51942
852.52	57.07919
852.814	56.37931
853.107	55.54192
853.401	54.746
853.695	53.90973
853.989	52.61354
854.282	51.80446
854.576	51.06789
854.869	50.27379
855.163	49.37734
855.456	47.95397
855.75	47.04845
856.043	46.22099
856.336	45.27873
856.63	44.20374
856.923	42.39728
857.216	41.09095
857.509	39.98028
857.802	39.47457
858.095	38.11731
858.388	37.04305
858.681	35.96816
858.974	35.52151
859.266	35.41519
859.559	34.75185
859.852	33.36024
860.144	32.42425
860.437	31.49532
860.729	29.8168
861.022	28.81991
861.314	26.86553
861.606	25.62515
861.899	24.65987
862.191	23.64201
862.483	23.05593
862.775	22.68133
863.067	22.67896
863.359	22.6958
863.651	22.00495
863.943	21.62646
864.235	21.16763
864.527	19.88578
864.819	18.4982
865.11	18.0954
865.402	17.04948
865.693	16.99108
865.985	16.98471
866.276	16.64239
866.568	16.48664
866.859	16.52693
867.151	16.35396
867.442	16.83215
867.733	17.38345
868.024	17.37116
868.315	17.35743
868.606	17.19981
868.897	17.56078
869.188	17.4531
869.479	17.40719
869.77	17.032
870.061	16.88764
870.351	17.37768
870.642	18.10306
870.933	18.56401
871.223	18.30673
871.514	18.2539
871.804	18.17714
872.095	18.02059
872.385	17.81231
872.675	17.17884
