Data from no-cure_1e-8_Relative_16-13-00-710.txt Node
Date: Fri Aug 18 16:13:00 EDT 2023
User: UV-vis
Spectrometer: FLMS04918
Trigger mode: 0
Integration Time (sec): 1.000000E-1
Scans to average: 3
Electric dark correction enabled: true
Nonlinearity correction enabled: false
Boxcar width: 3
XAxis mode: Wavelengths
Number of Pixels in Spectrum: 2048
>>>>>Begin Spectral Data<<<<<
179.23	42.69939
179.611	53.26889
179.992	58.0957
180.373	50.98822
180.754	62.17443
181.134	31.40889
181.515	9.71719
181.896	13.22389
182.276	-25.70405
182.657	-17.10189
183.038	24.42608
183.418	-20.65834
183.799	674.07407
184.179	-117.09647
184.56	-147.99054
184.94	-78.35616
185.32	-7.51694
185.701	33.50254
186.081	22.05746
186.461	74.6051
186.842	53.53135
187.222	53.88433
187.602	54.35499
187.982	54.49693
188.362	54.71088
188.742	54.78022
189.122	54.89703
189.502	54.95734
189.882	55.01479
190.262	55.1924
190.642	55.36609
191.022	55.41992
191.402	55.43623
191.781	55.2932
192.161	55.28
192.541	55.40007
192.92	55.23794
193.3	55.13579
193.68	55.08829
194.059	54.96543
194.439	55.08274
194.818	55.26454
195.198	55.36741
195.577	55.50086
195.957	55.50825
196.336	55.49513
196.715	55.72161
197.094	55.8118
197.474	55.75392
197.853	55.66697
198.232	55.60347
198.611	55.74261
198.99	55.77297
199.369	55.76057
199.748	55.8126
200.127	55.81455
200.506	55.77427
200.885	56.05781
201.264	56.03745
201.643	56.03191
202.022	55.85311
202.401	55.7346
202.779	55.84095
203.158	56.01165
203.537	55.88235
203.915	55.83126
204.294	55.80599
204.673	55.89899
205.051	55.78906
205.43	55.54598
205.808	55.39588
206.187	55.26916
206.565	55.29423
206.943	55.39107
207.322	55.56402
207.7	55.68391
208.078	55.82908
208.456	55.89424
208.835	55.94353
209.213	55.96787
209.591	55.864
209.969	55.68191
210.347	55.77796
210.725	55.71563
211.103	55.73616
211.481	55.74292
211.859	55.82774
212.237	55.852
212.614	55.9447
212.992	55.77346
213.37	55.97243
213.748	56.07976
214.125	56.02278
214.503	55.85349
214.881	55.90684
215.258	55.87661
215.636	55.81871
216.013	55.6857
216.391	55.62914
216.768	55.61618
217.145	55.56189
217.523	55.68695
217.9	55.64884
218.277	55.78724
218.655	55.82848
219.032	55.9032
219.409	55.87558
219.786	56.02089
220.163	55.88453
220.54	55.94244
220.917	55.79629
221.294	55.91967
221.671	55.7964
222.048	55.94379
222.425	55.78378
222.802	55.79536
223.179	56.01226
223.556	56.00536
223.932	55.92631
224.309	55.89331
224.686	55.64367
225.062	55.63083
225.439	55.66427
225.815	55.40552
226.192	55.59517
226.568	55.52113
226.945	55.55984
227.321	55.83651
227.698	56.00811
228.074	55.94784
228.45	55.96509
228.827	55.95213
229.203	56.00422
229.579	55.88795
229.955	55.80224
230.331	55.77234
230.707	55.99432
231.083	56.03407
231.46	56.04777
231.835	56.1513
232.211	56.24881
232.587	56.30823
232.963	56.19857
233.339	56.09481
233.715	56.0818
234.091	56.07395
234.466	56.00357
234.842	56.03321
235.218	55.92946
235.593	56.10009
235.969	56.10402
236.344	56.14872
236.72	56.23928
237.095	56.24835
237.471	56.26703
237.846	56.17676
238.222	56.03104
238.597	56.06454
238.972	56.11437
239.348	56.12338
239.723	56.11252
240.098	56.01763
240.473	56.20129
240.848	56.43237
241.223	56.38768
241.598	56.41931
241.973	56.34919
242.348	56.41164
242.723	56.3966
243.098	56.3232
243.473	56.18492
243.848	56.11995
244.223	55.97274
244.597	56.10314
244.972	56.06189
245.347	56.20422
245.721	56.20379
246.096	56.2266
246.47	56.27672
246.845	56.15876
247.219	55.94753
247.594	55.93909
247.968	55.89023
248.343	55.88965
248.717	55.89669
249.091	55.98067
249.466	56.24152
249.84	56.24639
250.214	56.31657
250.588	56.32013
250.962	56.31081
251.336	56.24799
251.71	56.18341
252.084	56.30346
252.458	56.35753
252.832	56.37601
253.206	56.44769
253.58	56.37597
253.954	56.38355
254.328	56.59358
254.702	56.30852
255.075	56.10813
255.449	56.01582
255.823	55.87893
256.196	55.94348
256.57	56.00565
256.943	55.85191
257.317	55.8987
257.69	56.0154
258.064	56.01966
258.437	56.14485
258.81	56.20012
259.184	56.24487
259.557	56.07861
259.93	56.2112
260.303	56.2489
260.677	56.33017
261.05	56.35034
261.423	56.37863
261.796	56.31918
262.169	56.40444
262.542	56.24399
262.915	56.23851
263.288	56.12426
263.661	56.02365
264.033	56.04638
264.406	56.04066
264.779	56.16545
265.152	56.22804
265.524	56.2846
265.897	56.45321
266.27	56.50717
266.642	56.4957
267.015	56.64648
267.387	56.57662
267.76	56.67412
268.132	56.61538
268.504	56.57203
268.877	56.72909
269.249	56.74427
269.621	56.68483
269.994	56.74029
270.366	56.60697
270.738	56.61999
271.11	56.61858
271.482	56.54222
271.854	56.4107
272.226	56.29083
272.598	56.17709
272.97	56.46874
273.342	56.5193
273.714	56.59152
274.086	56.63985
274.458	56.92424
274.829	56.95513
275.201	57.20549
275.573	57.12504
275.944	57.24286
276.316	57.17307
276.688	57.08871
277.059	56.98045
277.431	57.05798
277.802	56.94369
278.173	56.83495
278.545	56.77011
278.916	56.86849
279.287	56.96376
279.659	56.89848
280.03	56.82399
280.401	56.81104
280.772	56.81802
281.143	56.64336
281.515	56.48815
281.886	56.43581
282.257	56.7907
282.628	57.64296
282.998	59.06571
283.369	61.85494
283.74	66.21695
284.111	71.7246
284.482	78.193
284.853	84.63339
285.223	90.72061
285.594	96.4373
285.965	100.94058
286.335	103.8629
286.706	105.36619
287.076	105.65823
287.447	105.65822
287.817	105.65811
288.188	105.65869
288.558	105.659
288.928	105.65934
289.299	105.65969
289.669	105.65983
290.039	105.65935
290.409	105.65878
290.779	105.65867
291.149	105.65894
291.52	105.65929
291.89	105.65817
292.26	105.65842
292.629	105.65853
292.999	105.65876
293.369	105.65936
293.739	105.65911
294.109	105.65871
294.479	105.65899
294.848	105.65876
295.218	105.6584
295.588	105.65893
295.957	105.6579
296.327	105.65801
296.696	105.65765
297.066	105.65748
297.435	105.65766
297.805	105.65812
298.174	105.65837
298.544	105.65841
298.913	105.65832
299.282	105.65918
299.651	105.65955
300.021	105.65952
300.39	105.65932
300.759	105.65871
301.128	105.65909
301.497	105.65871
301.866	105.65812
302.235	105.65859
302.604	105.65851
302.973	105.65885
303.342	105.65884
303.71	105.6589
304.079	105.65884
304.448	105.65932
304.817	105.65858
305.185	105.65862
305.554	105.65862
305.923	105.659
306.291	105.65878
306.66	105.65895
307.028	105.65924
307.397	105.65928
307.765	105.6594
308.133	105.65979
308.502	105.65938
308.87	105.65961
309.238	105.65961
309.606	105.65917
309.975	105.65975
310.343	105.66004
310.711	105.65943
311.079	105.65984
311.447	105.66041
311.815	105.66072
312.183	105.6606
312.551	105.66066
312.919	105.66013
313.286	105.6604
313.654	105.66042
314.022	105.6593
314.39	105.65857
314.757	105.65856
315.125	105.65794
315.492	105.65823
315.86	105.65803
316.228	105.65756
316.595	105.65824
316.962	105.65917
317.33	105.65911
317.697	105.65919
318.065	105.65954
318.432	105.65954
318.799	105.65969
319.166	105.65943
319.534	105.65932
319.901	105.65977
320.268	105.66024
320.635	105.65995
321.002	105.66013
321.369	105.65995
321.736	105.66017
322.103	105.65951
322.47	105.65971
322.836	105.66013
323.203	105.65984
323.57	105.65927
323.937	105.65934
324.303	105.65943
324.67	105.65983
325.037	105.65959
325.403	105.65874
325.77	105.65918
326.136	105.66042
326.503	105.66034
326.869	105.66018
327.235	105.65991
327.602	105.65984
327.968	105.66024
328.334	105.66044
328.7	105.66022
329.067	105.66091
329.433	105.66115
329.799	105.66151
330.165	105.66085
330.531	105.66117
330.897	105.66105
331.263	105.66046
331.629	105.66044
331.995	105.66022
332.36	105.66027
332.726	105.66105
333.092	105.66104
333.458	105.66092
333.823	105.66078
334.189	105.66053
334.554	105.66058
334.92	105.66009
335.286	105.65949
335.651	105.65841
336.016	105.65792
336.382	105.65787
336.747	105.6577
337.113	105.65776
337.478	105.65816
337.843	105.65874
338.208	105.65899
338.573	105.65941
338.939	105.65938
339.304	105.65968
339.669	105.65977
340.034	105.65976
340.399	105.65992
340.764	105.66036
341.129	105.66016
341.493	105.6601
341.858	105.66016
342.223	105.66042
342.588	105.66063
342.952	105.66005
343.317	105.65995
343.682	105.66001
344.046	105.66021
344.411	105.66027
344.775	105.65952
345.14	105.65973
345.504	105.66012
345.869	105.65996
346.233	105.66009
346.597	105.66018
346.962	105.66017
347.326	105.66019
347.69	105.65988
348.054	105.6599
348.418	105.66019
348.782	105.66009
349.146	105.65978
349.51	105.65923
349.874	105.65945
350.238	105.65962
350.602	105.65949
350.966	105.65958
351.33	105.6593
351.693	105.65967
352.057	105.6602
352.421	105.66054
352.784	105.66005
353.148	105.65971
353.512	105.6593
353.875	105.66008
354.239	105.6602
354.602	105.65967
354.966	105.65913
355.329	105.65965
355.692	105.66022
356.056	105.66047
356.419	105.66007
356.782	105.66032
357.145	105.66045
357.508	105.66044
357.871	105.65998
358.234	105.65948
358.597	105.65921
358.96	105.65917
359.323	105.65836
359.686	105.65809
360.049	105.65876
360.412	105.65892
360.775	105.65932
361.137	105.65892
361.5	105.65885
361.863	105.65923
362.225	105.66012
362.588	105.66018
362.951	105.6604
363.313	105.65996
363.675	105.66035
364.038	105.66027
364.4	105.66042
364.763	105.65973
365.125	105.65954
365.487	105.65958
365.849	105.65993
366.212	105.65943
366.574	105.66013
366.936	105.66037
367.298	105.66066
367.66	105.66049
368.022	105.6602
368.384	105.65999
368.746	105.6612
369.108	105.66038
369.469	105.65973
369.831	105.65929
370.193	105.65916
370.555	105.6596
370.916	105.65978
371.278	105.659
371.64	105.65871
372.001	105.65899
372.363	105.65866
372.724	105.65924
373.086	105.65932
373.447	105.65954
373.808	105.66002
374.17	105.65998
374.531	105.65967
374.892	105.66065
375.253	105.65961
375.615	105.6593
375.976	105.65842
376.337	105.65833
376.698	105.65944
377.059	105.65984
377.42	105.66033
377.781	105.66113
378.141	105.66109
378.502	105.66176
378.863	105.66153
379.224	105.66107
379.585	105.66086
379.945	105.66082
380.306	105.66079
380.666	105.66109
381.027	105.66094
381.388	105.66068
381.748	105.66085
382.108	105.66082
382.469	105.6599
382.829	105.6596
383.19	105.65941
383.55	105.65936
383.91	105.65973
384.27	105.65903
384.63	105.65857
384.991	105.65901
385.351	105.65882
385.711	105.65787
386.071	105.65786
386.431	105.65784
386.791	105.6579
387.15	105.65893
387.51	105.65887
387.87	105.65878
388.23	105.65954
388.589	105.65998
388.949	105.66035
389.309	105.66097
389.668	105.66044
390.028	105.66026
390.387	105.6608
390.747	105.66077
391.106	105.66104
391.466	105.66069
391.825	105.66103
392.184	105.66142
392.544	105.66172
392.903	105.6616
393.262	105.6614
393.621	105.66078
393.98	105.66126
394.339	105.66041
394.698	105.65968
395.057	105.65979
395.416	105.65994
395.775	105.66022
396.134	105.66025
396.493	105.65962
396.852	105.66
397.211	105.66072
397.569	105.66065
397.928	105.66066
398.287	105.6604
398.645	105.66103
399.004	105.66092
399.362	105.66113
399.721	105.66074
400.079	105.6604
400.438	105.66083
400.796	105.66138
401.154	105.66102
401.512	105.66108
401.871	105.66107
402.229	105.66142
402.587	105.66192
402.945	105.66124
403.303	105.6604
403.661	105.66036
404.019	105.66045
404.377	105.66011
404.735	105.65966
405.093	105.65873
405.451	105.65911
405.808	105.65943
406.166	105.65908
406.524	105.65916
406.882	105.65828
407.239	105.65849
407.597	105.65893
407.954	105.65864
408.312	105.65892
408.669	105.65892
409.027	105.65883
409.384	105.65984
409.741	105.65948
410.099	105.65887
410.456	105.65859
410.813	105.65808
411.17	105.65807
411.527	105.65781
411.884	105.65765
412.242	105.65835
412.599	105.65929
412.956	105.65979
413.312	105.66032
413.669	105.66093
414.026	105.6614
414.383	105.66152
414.74	105.66071
415.096	105.66018
415.453	105.65977
415.81	105.65992
416.166	105.65888
416.523	105.65849
416.879	105.65876
417.236	105.65937
417.592	105.6593
417.949	105.65932
418.305	105.65934
418.661	105.65974
419.018	105.66028
419.374	105.65978
419.73	105.6602
420.086	105.66065
420.442	105.66055
420.798	105.66046
421.154	105.66055
421.51	105.6605
421.866	105.66065
422.222	105.65984
422.578	105.65967
422.934	105.65971
423.29	105.65993
423.646	105.65986
424.001	105.65927
424.357	105.65876
424.713	105.65936
425.068	105.6591
425.424	105.65913
425.779	105.65951
426.135	105.66024
426.49	105.66066
426.845	105.66119
427.201	105.66117
427.556	105.66126
427.911	105.66166
428.266	105.6607
428.622	105.66001
428.977	105.66002
429.332	105.66049
429.687	105.66036
430.042	105.66035
430.397	105.65967
430.752	105.66007
431.107	105.66032
431.461	105.66033
431.816	105.66005
432.171	105.6596
432.526	105.65948
432.88	105.65967
433.235	105.6589
433.59	105.6591
433.944	105.65904
434.299	105.65957
434.653	105.65963
435.008	105.66027
435.362	105.66028
435.716	105.66124
436.071	105.66071
436.425	105.66093
436.779	105.66047
437.133	105.66094
437.487	105.6606
437.841	105.66115
438.195	105.66136
438.549	105.66166
438.903	105.66149
439.257	105.66179
439.611	105.66174
439.965	105.6613
440.319	105.66176
440.673	105.66159
441.026	105.66157
441.38	105.66167
441.734	105.66167
442.087	105.66135
442.441	105.66155
442.794	105.66068
443.148	105.66042
443.501	105.66044
443.855	105.66028
444.208	105.65992
444.561	105.65967
444.915	105.65995
445.268	105.65999
445.621	105.6596
445.974	105.65969
446.327	105.65935
446.68	105.65918
447.033	105.66002
447.386	105.65994
447.739	105.66025
448.092	105.66065
448.445	105.66042
448.798	105.66044
449.15	105.66109
449.503	105.66067
449.856	105.66087
450.209	105.66116
450.561	105.66067
450.914	105.66125
451.266	105.66163
451.619	105.66124
451.971	105.66113
452.323	105.66095
452.676	105.66008
453.028	105.66091
453.38	105.66011
453.733	105.65992
454.085	105.6595
454.437	105.65978
454.789	105.6598
455.141	105.66061
455.493	105.66043
455.845	105.66096
456.197	105.66088
456.549	105.66103
456.901	105.66117
457.253	105.66113
457.604	105.66077
457.956	105.66011
458.308	105.66038
458.659	105.66069
459.011	105.6605
459.362	105.66007
459.714	105.66002
460.065	105.66002
460.417	105.66038
460.768	105.66011
461.12	105.65957
461.471	105.66013
461.822	105.66066
462.173	105.66085
462.525	105.66104
462.876	105.661
463.227	105.66035
463.578	105.66077
463.929	105.66025
464.28	105.65949
464.631	105.659
464.982	105.65927
465.332	105.65912
465.683	105.65951
466.034	105.65934
466.385	105.65935
466.735	105.65932
467.086	105.65938
467.437	105.65946
467.787	105.65948
468.138	105.65927
468.488	105.65977
468.839	105.66009
469.189	105.66004
469.539	105.6602
469.89	105.65976
470.24	105.65961
470.59	105.65979
470.94	105.65993
471.29	105.65954
471.64	105.65998
471.99	105.66032
472.34	105.66072
472.69	105.66047
473.04	105.66082
473.39	105.66069
473.74	105.66104
474.09	105.66095
474.439	105.66094
474.789	105.66066
475.139	105.66118
475.488	105.66084
475.838	105.66082
476.188	105.66069
476.537	105.66088
476.886	105.66066
477.236	105.66
477.585	105.65999
477.935	105.65984
478.284	105.6597
478.633	105.65969
478.982	105.65968
479.331	105.65977
479.68	105.66022
480.03	105.66036
480.379	105.6607
480.728	105.66043
481.076	105.66053
481.425	105.66068
481.774	105.66047
482.123	105.66013
482.472	105.66016
482.821	105.66034
483.169	105.66062
483.518	105.66068
483.866	105.66058
484.215	105.66052
484.563	105.66084
484.912	105.66028
485.26	105.65992
485.609	105.66043
485.957	105.6605
486.305	105.66004
486.654	105.66032
487.002	105.66102
487.35	105.66133
487.698	105.66116
488.046	105.66022
488.394	105.66011
488.742	105.6604
489.09	105.66043
489.438	105.66004
489.786	105.66076
490.134	105.66093
490.482	105.66184
490.829	105.66133
491.177	105.66184
491.525	105.66174
491.872	105.66121
492.22	105.66086
492.567	105.66068
492.915	105.65994
493.262	105.66029
493.61	105.65924
493.957	105.65971
494.304	105.65975
494.652	105.66009
494.999	105.66042
495.346	105.66034
495.693	105.66061
496.04	105.66155
496.387	105.66092
496.734	105.66127
497.081	105.66082
497.428	105.6607
497.775	105.661
498.122	105.66093
498.469	105.6605
498.816	105.66102
499.162	105.66058
499.509	105.66047
499.856	105.66086
500.202	105.66096
500.549	105.66088
500.895	105.66077
501.242	105.66051
501.588	105.66082
501.935	105.66054
502.281	105.66035
502.627	105.66029
502.973	105.65988
503.32	105.65957
503.666	105.65948
504.012	105.65933
504.358	105.65923
504.704	105.65842
505.05	105.65851
505.396	105.65936
505.742	105.65977
506.088	105.66
506.433	105.66013
506.779	105.6604
507.125	105.66063
507.471	105.66022
507.816	105.65977
508.162	105.66029
508.507	105.66054
508.853	105.66079
509.198	105.66059
509.544	105.66147
509.889	105.66186
510.234	105.66161
510.58	105.66134
510.925	105.66112
511.27	105.66109
511.615	105.66126
511.96	105.66038
512.306	105.66024
512.651	105.66007
512.996	105.65963
513.341	105.65937
513.685	105.65896
514.03	105.65948
514.375	105.66049
514.72	105.6607
515.065	105.66129
515.409	105.66137
515.754	105.66109
516.099	105.66166
516.443	105.66104
516.788	105.66038
517.132	105.65986
517.476	105.65945
517.821	105.65977
518.165	105.65986
518.51	105.65921
518.854	105.65959
519.198	105.65958
519.542	105.66019
519.886	105.6603
520.23	105.65999
520.574	105.66007
520.918	105.66036
521.262	105.66028
521.606	105.66007
521.95	105.65957
522.294	105.65953
522.638	105.6595
522.981	105.6595
523.325	105.65943
523.669	105.65977
524.012	105.65999
524.356	105.66
524.699	105.66038
525.043	105.66022
525.386	105.66047
525.73	105.66354
526.073	105.66285
526.416	105.66279
526.76	105.66326
527.103	105.66323
527.446	105.6644
527.789	105.66441
528.132	105.66178
528.475	105.66274
528.818	105.66277
529.161	105.66225
529.504	105.66159
529.847	105.66075
530.19	105.66061
530.532	105.66007
530.875	105.65876
531.218	105.6587
531.56	105.65883
531.903	105.65963
532.246	105.65943
532.588	105.65926
532.93	105.65968
533.273	105.66041
533.615	105.66042
533.958	105.66059
534.3	105.65983
534.642	105.66074
534.984	105.6609
535.326	105.66044
535.669	105.66069
536.011	105.66077
536.353	105.66072
536.695	105.66137
537.037	105.66117
537.378	105.66088
537.72	105.66066
538.062	105.66004
538.404	105.65953
538.746	105.65954
539.087	105.65946
539.429	105.65928
539.77	105.65961
540.112	105.66013
540.454	105.66088
540.795	105.66125
541.136	105.66132
541.478	105.66141
541.819	105.66099
542.16	105.66107
542.502	105.66092
542.843	105.66061
543.184	105.66093
543.525	105.66074
543.866	105.6601
544.207	105.66
544.548	105.6599
544.889	105.65945
545.23	105.6593
545.571	105.65967
545.911	105.6596
546.252	105.66018
546.593	105.66049
546.934	105.66038
547.274	105.66095
547.615	105.66103
547.955	105.66071
548.296	105.66122
548.636	105.66116
548.977	105.66084
549.317	105.66153
549.657	105.66202
549.997	105.6624
550.338	105.66192
550.678	105.66163
551.018	105.66113
551.358	105.66158
551.698	105.66127
552.038	105.66068
552.378	105.66028
552.718	105.66115
553.058	105.66138
553.398	105.66217
553.737	105.66187
554.077	105.66202
554.417	105.66196
554.756	105.66222
555.096	105.66145
555.435	105.66153
555.775	105.66082
556.114	105.66092
556.454	105.66028
556.793	105.66053
557.133	105.6605
557.472	105.66035
557.811	105.66011
558.15	105.66043
558.489	105.66026
558.829	105.66066
559.168	105.66043
559.507	105.66029
559.846	105.66084
560.184	105.6608
560.523	105.66086
560.862	105.66143
561.201	105.66166
561.54	105.66197
561.878	105.66191
562.217	105.66162
562.556	105.66141
562.894	105.66232
563.233	105.66232
563.571	105.6623
563.91	105.662
564.248	105.66199
564.586	105.66208
564.925	105.66232
565.263	105.66076
565.601	105.6602
565.939	105.65977
566.277	105.65988
566.616	105.66009
566.954	105.65996
567.292	105.66041
567.63	105.66194
567.967	105.66232
568.305	105.6622
568.643	105.6618
568.981	105.66154
569.319	105.66177
569.656	105.66151
569.994	105.6607
570.331	105.66022
570.669	105.66035
571.006	105.66067
571.344	105.66032
571.681	105.65976
572.019	105.65948
572.356	105.65982
572.693	105.66038
573.03	105.66046
573.368	105.66022
573.705	105.66053
574.042	105.66097
574.379	105.66055
574.716	105.65993
575.053	105.65955
575.39	105.65933
575.727	105.65936
576.063	105.65934
576.4	105.65988
576.737	105.66013
577.074	105.66027
577.41	105.66059
577.747	105.66075
578.083	105.66047
578.42	105.66026
578.756	105.65979
579.093	105.66041
579.429	105.66051
579.766	105.66025
580.102	105.66062
580.438	105.66087
580.774	105.66109
581.11	105.66096
581.446	105.66065
581.782	105.66017
582.119	105.66017
582.454	105.65994
582.79	105.66
583.126	105.6602
583.462	105.66049
583.798	105.6599
584.134	105.65995
584.469	105.66011
584.805	105.65984
585.141	105.66034
585.476	105.66036
585.812	105.66005
586.147	105.66036
586.482	105.66082
586.818	105.66043
587.153	105.66111
587.488	105.66071
587.824	105.66047
588.159	105.66034
588.494	105.66043
588.829	105.66013
589.164	105.66067
589.499	105.66034
589.834	105.66004
590.169	105.65985
590.504	105.65985
590.839	105.65957
591.174	105.65946
591.508	105.65916
591.843	105.65935
592.178	105.6599
592.512	105.65977
592.847	105.65943
593.181	105.65958
593.516	105.65957
593.85	105.65977
594.185	105.65921
594.519	105.65864
594.853	105.65865
595.187	105.65954
595.522	105.65995
595.856	105.66026
596.19	105.66004
596.524	105.66042
596.858	105.66088
597.192	105.66129
597.526	105.66072
597.86	105.6608
598.194	105.66111
598.527	105.66088
598.861	105.6601
599.195	105.66037
599.528	105.65973
599.862	105.65952
600.196	105.65924
600.529	105.65891
600.863	105.65911
601.196	105.66004
601.529	105.65954
601.863	105.66022
602.196	105.66033
602.529	105.66008
602.862	105.66045
603.196	105.66057
603.529	105.66032
603.862	105.65987
604.195	105.65983
604.528	105.66027
604.861	105.66074
605.193	105.66051
605.526	105.66041
605.859	105.65979
606.192	105.66016
606.524	105.66003
606.857	105.65984
607.19	105.65985
607.522	105.65923
607.855	105.6595
608.187	105.65977
608.52	105.6601
608.852	105.66022
609.184	105.66022
609.517	105.6601
609.849	105.66053
610.181	105.66038
610.513	105.66117
610.845	105.66062
611.177	105.6609
611.509	105.66051
611.841	105.66043
612.173	105.65998
612.505	105.66004
612.837	105.65961
613.169	105.6594
613.5	105.65958
613.832	105.66003
614.164	105.65993
614.495	105.66071
614.827	105.6603
615.158	105.66004
615.49	105.66094
615.821	105.66053
616.152	105.66063
616.484	105.66063
616.815	105.66007
617.146	105.66046
617.477	105.661
617.808	105.66088
618.14	105.66068
618.471	105.65985
618.802	105.66009
619.133	105.66012
619.463	105.65971
619.794	105.65928
620.125	105.65918
620.456	105.65915
620.787	105.65969
621.117	105.65983
621.448	105.66024
621.778	105.66054
622.109	105.6602
622.439	105.65977
622.77	105.65959
623.1	105.66007
623.43	105.65975
623.761	105.6603
624.091	105.66058
624.421	105.66065
624.751	105.66102
625.081	105.66136
625.412	105.66065
625.742	105.66055
626.072	105.65979
626.401	105.65944
626.731	105.65986
627.061	105.6598
627.391	105.65955
627.721	105.66011
628.05	105.65993
628.38	105.66005
628.71	105.66086
629.039	105.66099
629.369	105.66133
629.698	105.66094
630.028	105.66082
630.357	105.6612
630.686	105.661
631.015	105.66049
631.345	105.66055
631.674	105.65985
632.003	105.66046
632.332	105.66096
632.661	105.66091
632.99	105.66096
633.319	105.66018
633.648	105.65932
633.977	105.65978
634.306	105.65915
634.634	105.65916
634.963	105.65923
635.292	105.6593
635.62	105.66
635.949	105.66095
636.277	105.66021
636.606	105.66077
636.934	105.65967
637.263	105.65958
637.591	105.65962
637.919	105.65994
638.248	105.65955
638.576	105.66033
638.904	105.66033
639.232	105.66088
639.56	105.66104
639.888	105.66105
640.216	105.66093
640.544	105.6606
640.872	105.66032
641.2	105.6605
641.528	105.66078
641.855	105.66057
642.183	105.66055
642.511	105.6615
642.838	105.66202
643.166	105.66161
643.493	105.66107
643.821	105.6607
644.148	105.66026
644.475	105.65957
644.803	105.65778
645.13	105.65714
645.457	105.65793
645.784	105.65816
646.112	105.65752
646.439	105.65851
646.766	105.65935
647.093	105.65959
647.42	105.65986
647.746	105.65974
648.073	105.66017
648.4	105.66063
648.727	105.65966
649.053	105.65975
649.38	105.66012
649.707	105.66019
650.033	105.65984
650.36	105.65976
650.686	105.66002
651.013	105.65993
651.339	105.65958
651.665	105.65954
651.992	105.65926
652.318	105.65933
652.644	105.65932
652.97	105.65862
653.296	105.65868
653.622	105.6586
653.948	105.65812
654.274	105.65829
654.6	105.65881
654.926	105.65904
655.252	105.66008
655.578	105.66077
655.903	105.66033
656.229	105.66026
656.555	105.6598
656.88	105.6593
657.206	105.65875
657.531	105.65827
657.857	105.65744
658.182	105.65816
658.507	105.65882
658.833	105.65966
659.158	105.65928
659.483	105.65945
659.808	105.65932
660.133	105.65954
660.458	105.65908
660.783	105.65881
661.108	105.65848
661.433	105.65848
661.758	105.65825
662.083	105.65794
662.408	105.6581
662.732	105.65844
663.057	105.65853
663.382	105.65807
663.706	105.65865
664.031	105.65879
664.355	105.65942
664.68	105.65903
665.004	105.6587
665.328	105.65834
665.653	105.65864
665.977	105.65865
666.301	105.65828
666.625	105.65857
666.949	105.65875
667.273	105.6594
667.597	105.65942
667.921	105.65976
668.245	105.66011
668.569	105.66019
668.893	105.65958
669.217	105.65965
669.54	105.65928
669.864	105.65958
670.188	105.65923
670.511	105.65853
670.835	105.65841
671.158	105.65837
671.482	105.65831
671.805	105.65814
672.128	105.65836
672.452	105.65944
672.775	105.65976
673.098	105.65992
673.421	105.6603
673.744	105.66084
674.068	105.66071
674.391	105.66054
674.714	105.65992
675.036	105.65999
675.359	105.66003
675.682	105.6602
676.005	105.65988
676.328	105.65992
676.65	105.65936
676.973	105.65913
677.295	105.65871
677.618	105.65902
677.94	105.65883
678.263	105.65912
678.585	105.65891
678.908	105.65913
679.23	105.65958
679.552	105.65973
679.874	105.65946
680.196	105.65919
680.519	105.65888
680.841	105.65953
681.163	105.65982
681.485	105.65928
681.807	105.65942
682.128	105.65925
682.45	105.65944
682.772	105.6598
683.094	105.65949
683.415	105.66
683.737	105.6602
684.059	105.66025
684.38	105.66075
684.702	105.66052
685.023	105.66012
685.344	105.66043
685.666	105.66
685.987	105.65976
686.308	105.6597
686.629	105.6595
686.95	105.65974
687.272	105.6597
687.593	105.65925
687.914	105.65866
688.235	105.65881
688.555	105.65915
688.876	105.65927
689.197	105.65913
689.518	105.65934
689.839	105.65988
690.159	105.6591
690.48	105.65894
690.8	105.65906
691.121	105.65935
691.441	105.65938
691.762	105.65918
692.082	105.65887
692.402	105.66022
692.723	105.66007
693.043	105.65988
693.363	105.65991
693.683	105.65945
694.003	105.65938
694.323	105.65913
694.643	105.65957
694.963	105.66005
695.283	105.65944
695.603	105.65865
695.923	105.65902
696.243	105.65942
696.562	105.65915
696.882	105.65873
697.202	105.6584
697.521	105.65919
697.841	105.66012
698.16	105.66022
698.479	105.65978
698.799	105.65992
699.118	105.65968
699.437	105.66004
699.757	105.65934
700.076	105.65865
700.395	105.65875
700.714	105.65868
701.033	105.65934
701.352	105.65929
701.671	105.65923
701.99	105.6594
702.308	105.6599
702.627	105.65967
702.946	105.66026
703.265	105.65988
703.583	105.6605
703.902	105.66043
704.22	105.66061
704.539	105.66002
704.857	105.65976
705.176	105.65944
705.494	105.65963
705.812	105.65888
706.131	105.65873
706.449	105.65865
706.767	105.65921
707.085	105.66003
707.403	105.66009
707.721	105.66
708.039	105.66021
708.357	105.66052
708.675	105.66038
708.993	105.66001
709.31	105.65974
709.628	105.65962
709.946	105.65988
710.263	105.65985
710.581	105.65955
710.898	105.65965
711.216	105.65952
711.533	105.65957
711.851	105.65985
712.168	105.65985
712.485	105.65993
712.802	105.66021
713.12	105.66026
713.437	105.66003
713.754	105.65978
714.071	105.65937
714.388	105.65942
714.705	105.65958
715.022	105.65952
715.338	105.65929
715.655	105.65959
715.972	105.65898
716.289	105.65921
716.605	105.65849
716.922	105.65856
717.238	105.65911
717.555	105.6595
717.871	105.65946
718.188	105.6603
718.504	105.66017
718.82	105.66052
719.136	105.65983
719.453	105.65954
719.769	105.65877
720.085	105.65864
720.401	105.65828
720.717	105.65886
721.033	105.6587
721.349	105.65916
721.665	105.6592
721.98	105.6603
722.296	105.66058
722.612	105.66112
722.927	105.66059
723.243	105.66078
723.559	105.66115
723.874	105.66085
724.19	105.65976
724.505	105.6599
724.82	105.6592
725.136	105.65946
725.451	105.65903
725.766	105.65844
726.081	105.65752
726.396	105.6579
726.711	105.65745
727.026	105.65774
727.341	105.6579
727.656	105.65834
727.971	105.65843
728.286	105.6591
728.601	105.65886
728.916	105.65912
729.23	105.6591
729.545	105.65835
729.859	105.65835
730.174	105.65854
730.488	105.65816
730.803	105.65881
731.117	105.65916
731.431	105.65938
731.746	105.66017
732.06	105.66
732.374	105.65998
732.688	105.66069
733.002	105.66051
733.316	105.66032
733.63	105.66026
733.944	105.66008
734.258	105.66038
734.572	105.66025
734.886	105.65976
735.199	105.65938
735.513	105.65961
735.827	105.65978
736.14	105.65982
736.454	105.65994
736.767	105.65982
737.081	105.65976
737.394	105.66026
737.708	105.6595
738.021	105.65941
738.334	105.65925
738.647	105.65895
738.96	105.65904
739.273	105.65952
739.587	105.65927
739.9	105.65899
740.212	105.65852
740.525	105.65843
740.838	105.65843
741.151	105.65898
741.464	105.65874
741.776	105.65845
742.089	105.65929
742.402	105.65904
742.714	105.65936
743.027	105.65966
743.339	105.65899
743.651	105.65955
743.964	105.66003
744.276	105.65995
744.588	105.66025
744.901	105.65994
745.213	105.65976
745.525	105.65963
745.837	105.65861
746.149	105.65841
746.461	105.65829
746.773	105.65881
747.085	105.65907
747.396	105.65898
747.708	105.6596
748.02	105.66018
748.331	105.66015
748.643	105.66061
748.955	105.66034
749.266	105.66033
749.577	105.6607
749.889	105.66043
750.2	105.66062
750.512	105.66117
750.823	105.66087
751.134	105.66076
751.445	105.66105
751.756	105.66104
752.067	105.66051
752.378	105.66061
752.689	105.66076
753	105.66069
753.311	105.66091
753.622	105.66051
753.932	105.66077
754.243	105.66132
754.554	105.66061
754.864	105.65998
755.175	105.66028
755.485	105.66037
755.796	105.65984
756.106	105.65941
756.417	105.65938
756.727	105.65993
757.037	105.66038
757.347	105.6599
757.658	105.65987
757.968	105.66029
758.278	105.66018
758.588	105.66053
758.898	105.65998
759.208	105.6596
759.517	105.66012
759.827	105.65991
760.137	105.65993
760.447	105.66016
760.756	105.65976
761.066	105.66007
761.375	105.65962
761.685	105.659
761.994	105.65899
762.304	105.65933
762.613	105.6587
762.922	105.65842
763.232	105.65831
763.541	105.65832
763.85	105.65841
764.159	105.65806
764.468	105.65812
764.777	105.65811
765.086	105.65826
765.395	105.65845
765.704	105.65832
766.013	105.65826
766.321	105.65804
766.63	105.65732
766.939	105.65762
767.247	105.65776
767.556	105.65701
767.864	105.65732
768.173	105.65731
768.481	105.65772
768.789	105.65797
769.098	105.65834
769.406	105.65845
769.714	105.65907
770.022	105.65909
770.33	105.65954
770.638	105.65962
770.946	105.65954
771.254	105.65901
771.562	105.659
771.87	105.65891
772.178	105.6591
772.486	105.65893
772.793	105.65916
773.101	105.65925
773.408	105.65918
773.716	105.65936
774.023	105.6594
774.331	105.65937
774.638	105.65928
774.946	105.659
775.253	105.65864
775.56	105.65924
775.867	105.65908
776.174	105.65921
776.481	105.65912
776.788	105.65932
777.095	105.66016
777.402	105.66085
777.709	105.66029
778.016	105.6604
778.323	105.65978
778.63	105.66007
778.936	105.66007
779.243	105.659
779.549	105.65827
779.856	105.65837
780.162	105.65823
780.469	105.6587
780.775	105.65824
781.082	105.65803
781.388	105.65817
781.694	105.65862
782	105.65837
782.306	105.65829
782.612	105.65899
782.918	105.65985
783.224	105.65938
783.53	105.65915
783.836	105.65958
784.142	105.6605
784.448	105.6602
784.753	105.65962
785.059	105.65909
785.365	105.66013
785.67	105.66101
785.976	105.66105
786.281	105.66063
786.586	105.66078
786.892	105.66066
787.197	105.6605
787.502	105.65998
787.808	105.65921
788.113	105.65822
788.418	105.6587
788.723	105.65886
789.028	105.65903
789.333	105.65979
789.638	105.65998
789.942	105.66091
790.247	105.66147
790.552	105.66093
790.857	105.6615
791.161	105.66151
791.466	105.6607
791.77	105.66072
792.075	105.66034
792.379	105.66104
792.684	105.66135
792.988	105.66047
793.292	105.66038
793.597	105.66051
793.901	105.66036
794.205	105.66026
794.509	105.65969
794.813	105.65887
795.117	105.65918
795.421	105.65967
795.725	105.65984
796.029	105.65966
796.332	105.6595
796.636	105.65892
796.94	105.65932
797.243	105.65938
797.547	105.65929
797.85	105.65883
798.154	105.65948
798.457	105.65891
798.761	105.65903
799.064	105.65904
799.367	105.65903
799.67	105.65902
799.973	105.65904
800.277	105.65823
800.58	105.65866
800.883	105.65865
801.186	105.65888
801.488	105.65903
801.791	105.65844
802.094	105.65875
802.397	105.6589
802.699	105.6585
803.002	105.65942
803.305	105.65896
803.607	105.65911
803.91	105.65929
804.212	105.65896
804.515	105.65955
804.817	105.66052
805.119	105.6595
805.421	105.65941
805.724	105.6587
806.026	105.65926
806.328	105.65987
806.63	105.65936
806.932	105.65924
807.234	105.65957
807.535	105.65992
807.837	105.66057
808.139	105.66044
808.441	105.66045
808.742	105.66054
809.044	105.66029
809.346	105.66049
809.647	105.66062
809.948	105.66043
810.25	105.66013
810.551	105.66028
810.853	105.65977
811.154	105.66021
811.455	105.66011
811.756	105.66026
812.057	105.66012
812.358	105.66029
812.659	105.65992
812.96	105.66062
813.261	105.66068
813.562	105.66052
813.863	105.65974
814.163	105.66008
814.464	105.65971
814.765	105.65985
815.065	105.65962
815.366	105.659
815.666	105.65906
815.967	105.65983
816.267	105.65994
816.567	105.65993
816.868	105.6594
817.168	105.65941
817.468	105.56157
817.768	105.41356
818.068	105.21357
818.368	104.94834
818.668	104.69198
818.968	104.26784
819.268	103.70682
819.568	103.18251
819.867	102.74916
820.167	102.20861
820.467	101.73157
820.766	101.0968
821.066	100.47305
821.365	99.9791
821.665	99.41929
821.964	98.66854
822.263	98.10827
822.563	97.28188
822.862	96.46748
823.161	95.78207
823.46	95.08871
823.759	94.39712
824.058	93.75231
824.357	92.97842
824.656	92.15235
824.955	91.3386
825.254	90.41059
825.552	89.50385
825.851	88.56084
826.15	87.53895
826.448	86.36105
826.747	85.4853
827.045	84.68054
827.344	83.87952
827.642	82.94307
827.941	81.9243
828.239	80.82079
828.537	79.70126
828.835	78.47677
829.133	77.35785
829.432	76.32044
829.73	75.17027
830.028	74.13499
830.325	73.31232
830.623	72.67236
830.921	72.06888
831.219	71.37154
831.517	70.60384
831.814	69.93764
832.112	69.33316
832.409	68.67626
832.707	68.14081
833.004	67.66359
833.302	66.97581
833.599	66.41709
833.896	65.93542
834.194	65.40332
834.491	64.95496
834.788	64.37028
835.085	63.71546
835.382	63.3299
835.679	62.86173
835.976	62.40064
836.273	62.11407
836.57	61.82899
836.866	61.60379
837.163	61.49432
837.46	61.3659
837.756	61.23443
838.053	61.31283
838.349	61.22431
838.646	61.12744
838.942	60.89506
839.239	60.73811
839.535	60.57104
839.831	60.4638
840.127	60.16169
840.423	59.88917
840.72	59.71112
841.016	59.66756
841.312	59.44527
841.607	59.23157
841.903	59.08971
842.199	58.9935
842.495	58.83385
842.791	58.67858
843.086	58.49791
843.382	58.33576
843.677	58.18915
843.973	58.07722
844.268	57.93539
844.564	57.87658
844.859	57.68632
845.154	57.65608
845.45	57.48956
845.745	57.3719
846.04	57.16233
846.335	56.77425
846.63	56.5007
846.925	56.29221
847.22	56.07216
847.515	55.98965
847.81	55.75449
848.104	55.50132
848.399	55.48447
848.694	55.51704
848.988	55.36237
849.283	55.04695
849.578	54.71362
849.872	54.43335
850.166	53.89671
850.461	53.3352
850.755	52.74518
851.049	52.23806
851.343	51.6919
851.638	51.28325
851.932	50.85923
852.226	50.5184
852.52	50.12126
852.814	49.5483
853.107	48.85231
853.401	48.42182
853.695	47.7294
853.989	46.68862
854.282	45.87233
854.576	45.08946
854.869	44.42307
855.163	43.4633
855.456	42.49806
855.75	41.77046
856.043	41.11243
856.336	40.56365
856.63	39.50907
856.923	38.20112
857.216	37.37772
857.509	36.3064
857.802	35.20843
858.095	34.13237
858.388	32.81694
858.681	32.472
858.974	31.28026
859.266	30.82388
859.559	29.81188
859.852	28.55586
860.144	28.04612
860.437	27.67579
860.729	26.03645
861.022	25.19148
861.314	24.05506
861.606	23.46315
861.899	22.94105
862.191	22.06733
862.483	20.72304
862.775	21.07829
863.067	21.75538
863.359	21.95432
863.651	21.50758
863.943	21.07279
864.235	20.86581
864.527	20.70261
864.819	20.08884
865.11	19.69996
865.402	19.09738
865.693	18.65202
865.985	18.64784
866.276	18.22401
866.568	18.77215
866.859	18.51054
867.151	18.32607
867.442	18.32267
867.733	18.27767
868.024	18.77373
868.315	19.145
868.606	18.93907
868.897	19.44043
869.188	18.82337
869.479	18.71357
869.77	19.5799
870.061	19.76643
870.351	19.20998
870.642	19.34535
870.933	19.78581
871.223	20.93657
871.514	21.54357
871.804	21.53419
872.095	21.51495
872.385	22.40285
872.675	22.71567
